#     FILENAME=Skynet_58946_M31_15kpc_radius_44921_54524.A.onoff.cal.txt
#     BASENAME=Skynet_58946_M31_15kpc_radius_44921_54524
#      CONTROL=SKYNET
#     PROJCODE=Skynet_58946_M31_15kpc_radius_44921
#     DATAROOT=/raid/scratch/cyborg/SkynetData
#      DATADIR=/raid/scratch/cyborg
#     DATADIR2=/raid/scratch/cyborg/SkynetData/Skynet_58946_M31_15kpc_radius_4
#     SCANNAME=2020_03_09_19
#     SRC_NAME=M31_15kpc_radius
#     OBSERVER=unioncollege_21317
#     DATE_OBS=2020-04-07T18:19:46.370
#        OBSID=44921
#      SCANNUM=54524
#          MJD=58946.7637311
#          UTC=65986
#     SCANTYPE=onoff
#     DATAMODE=HIRES
#     RECEIVER=Rx1_2
#      OBSFREQ=1395.0000
# Actual_FREQ1=1423.0000,
# Actual_FREQ2=1423.0000
#    LO1Tuning=6873.0000
#     RFFILTER=1355_1435
#        OBSBW=-15.6250
#     EFFBANDW=15.6250
#        NCHAN=1024
#    STARTCHAN=51
#     STOPCHAN=972
#         TINT=0.3000
#         TBIN=0.00419430
#       ACCLEN=2048 
#     DURATION=173.10
#     EXPOSURE=125.38
#        FOCUS=36.983
#       RA,DEC=00:39:11.28, 40:25:20.89
#      RA(deg)=8.42465
#     DEC(deg)=40.42245
#   WIDTH(deg)=2.0751x0.0023
#    AZIM(deg)=283.5128
#    ELEV(deg)=71.8798
#     COORDREF=RA_DEC_
#         HREF=9.7399
#         VREF=40.4225
#      RADESYS=FK5
#       OFFSYS=RADEC
#      EQUINOX=2000.00
#     IFATTENS=20.00, 4.00
#   BALANCELEV=1.200 
#   POWER_XLYR=[2.4, 1.31] 
#       VELDEF=RADI-OBS 
#     VELOCITY=0.000 
#         NPOL=2 
#      POLMODE=Linear 
#      POLTYPE=XXYY 
#      WARNING=None 
#     NOISECAL=HI 
#       PRECAL=2 
#      POSTCAL=2 
#     CRYOTEMP=15 
#      BOXTEMP=35 
#         TSYS=XX1:36.92, YY1:37.96
#         TSYS=XX2:36.92, YY2:37.99
#         TCAL=XX1:9.18, YY1:10.14
#         TCAL=XX2:9.18, YY2:10.14
# Calibrated spectra: Tsys*(ON-OFF)/OFF 
#                
#                
#Freq1(MHz)         XX1          YY1   Freq2(MHz)       XX2         YY2 
   1430.03430       0.3984       0.3442    1430.03430       0.3984       0.3445
   1430.01904       0.3388       0.3237    1430.01904       0.3389       0.3239
   1430.00378       0.4525       0.3505    1430.00378       0.4525       0.3508
   1429.98853       0.3947       0.3092    1429.98853       0.3947       0.3094
   1429.97327       0.3842       0.2496    1429.97327       0.3842       0.2498
   1429.95801       0.4686       0.2855    1429.95801       0.4686       0.2856
   1429.94275       0.2716       0.2893    1429.94275       0.2716       0.2895
   1429.92749       0.3844       0.3268    1429.92749       0.3844       0.3270
   1429.91223       0.4764       0.2611    1429.91223       0.4764       0.2613
   1429.89697       0.3085       0.2988    1429.89697       0.3086       0.2990
   1429.88171       0.3138       0.3004    1429.88171       0.3138       0.3006
   1429.86646       0.3942       0.2010    1429.86646       0.3942       0.2012
   1429.85120       0.3401       0.1852    1429.85120       0.3401       0.1853
   1429.83594       0.2915       0.2205    1429.83594       0.2915       0.2207
   1429.82068       0.3724       0.1672    1429.82068       0.3724       0.1673
   1429.80542       0.4825       0.3147    1429.80542       0.4825       0.3149
   1429.79016       0.3424       0.2983    1429.79016       0.3424       0.2985
   1429.77490       0.3717       0.1819    1429.77490       0.3717       0.1820
   1429.75964       0.3676       0.1534    1429.75964       0.3676       0.1535
   1429.74438       0.4635       0.3102    1429.74438       0.4635       0.3104
   1429.72913       0.4020       0.2614    1429.72913       0.4020       0.2615
   1429.71387       0.3842       0.1975    1429.71387       0.3842       0.1976
   1429.69861       0.4278       0.2713    1429.69861       0.4278       0.2714
   1429.68335       0.2734       0.2907    1429.68335       0.2734       0.2909
   1429.66809       0.3167       0.1552    1429.66809       0.3167       0.1553
   1429.65283       0.3445       0.1786    1429.65283       0.3445       0.1787
   1429.63757       0.3163       0.2573    1429.63757       0.3163       0.2575
   1429.62231       0.3053       0.2243    1429.62231       0.3053       0.2244
   1429.60706       0.3553       0.1773    1429.60706       0.3553       0.1775
   1429.59180       0.2553       0.2533    1429.59180       0.2553       0.2535
   1429.57654       0.4067       0.2777    1429.57654       0.4067       0.2779
   1429.56128       0.2988       0.2685    1429.56128       0.2988       0.2686
   1429.54602       0.3505       0.2759    1429.54602       0.3505       0.2760
   1429.53076       0.3758       0.1746    1429.53076       0.3758       0.1747
   1429.51550       0.3112       0.1304    1429.51550       0.3112       0.1305
   1429.50024       0.3161       0.1955    1429.50024       0.3161       0.1956
   1429.48499       0.3563       0.2025    1429.48499       0.3563       0.2026
   1429.46973       0.2856       0.2005    1429.46973       0.2856       0.2006
   1429.45447       0.2766       0.1853    1429.45447       0.2766       0.1854
   1429.43921       0.3843       0.1955    1429.43921       0.3843       0.1956
   1429.42395       0.3816       0.1917    1429.42395       0.3816       0.1919
   1429.40869       0.3738       0.1205    1429.40869       0.3738       0.1206
   1429.39343       0.3968       0.2467    1429.39343       0.3968       0.2469
   1429.37817       0.3439       0.2064    1429.37817       0.3440       0.2065
   1429.36292       0.3018       0.1488    1429.36292       0.3018       0.1489
   1429.34766       0.4066       0.1408    1429.34766       0.4066       0.1409
   1429.33240       0.3414       0.2651    1429.33240       0.3414       0.2653
   1429.31714       0.3146       0.1140    1429.31714       0.3146       0.1140
   1429.30188       0.3402       0.2084    1429.30188       0.3402       0.2085
   1429.28662       0.3936       0.1818    1429.28662       0.3936       0.1819
   1429.27136       0.3658       0.2048    1429.27136       0.3658       0.2050
   1429.25610       0.2986       0.1742    1429.25610       0.2986       0.1743
   1429.24084       0.3527       0.0816    1429.24084       0.3527       0.0817
   1429.22559       0.2364       0.2213    1429.22559       0.2364       0.2215
   1429.21033       0.3259       0.1474    1429.21033       0.3259       0.1474
   1429.19507       0.3282       0.0863    1429.19507       0.3282       0.0864
   1429.17981       0.4037       0.2818    1429.17981       0.4037       0.2820
   1429.16455       0.2992       0.1566    1429.16455       0.2992       0.1567
   1429.14929       0.3594       0.1669    1429.14929       0.3594       0.1670
   1429.13403       0.2867       0.0963    1429.13403       0.2867       0.0964
   1429.11877       0.4891       0.1998    1429.11877       0.4891       0.1999
   1429.10352       0.3300       0.1761    1429.10352       0.3300       0.1762
   1429.08826       0.3309       0.1630    1429.08826       0.3309       0.1631
   1429.07300       0.2679       0.0937    1429.07300       0.2679       0.0938
   1429.05774       0.3495       0.1831    1429.05774       0.3495       0.1832
   1429.04248       0.1783       0.1692    1429.04248       0.1783       0.1693
   1429.02722       0.3259       0.2034    1429.02722       0.3259       0.2035
   1429.01196       0.4053       0.2217    1429.01196       0.4053       0.2218
   1428.99670       0.2868       0.1655    1428.99670       0.2868       0.1656
   1428.98145       0.3395       0.1086    1428.98145       0.3395       0.1086
   1428.96619       0.3993       0.0901    1428.96619       0.3994       0.0902
   1428.95093       0.3312       0.1614    1428.95093       0.3312       0.1615
   1428.93567       0.2331       0.2443    1428.93567       0.2331       0.2445
   1428.92041       0.3508       0.0861    1428.92041       0.3508       0.0861
   1428.90515       0.2506       0.1427    1428.90515       0.2506       0.1428
   1428.88989       0.3390       0.0950    1428.88989       0.3390       0.0951
   1428.87463       0.3208       0.1724    1428.87463       0.3208       0.1725
   1428.85938       0.3248       0.1473    1428.85938       0.3248       0.1474
   1428.84412       0.2410       0.0416    1428.84412       0.2410       0.0416
   1428.82886       0.3071       0.1121    1428.82886       0.3071       0.1122
   1428.81360       0.2574       0.1304    1428.81360       0.2574       0.1305
   1428.79834       0.2503       0.1463    1428.79834       0.2503       0.1464
   1428.78308       0.2702       0.1465    1428.78308       0.2702       0.1465
   1428.76782       0.3568       0.1742    1428.76782       0.3568       0.1743
   1428.75256       0.4345       0.0971    1428.75256       0.4345       0.0972
   1428.73730       0.4029      -0.0369    1428.73730       0.4029      -0.0369
   1428.72205       0.3709       0.1456    1428.72205       0.3709       0.1457
   1428.70679       0.3269       0.0757    1428.70679       0.3269       0.0758
   1428.69153       0.3241       0.0373    1428.69153       0.3242       0.0373
   1428.67627       0.3299       0.0398    1428.67627       0.3299       0.0398
   1428.66101       0.3637       0.2022    1428.66101       0.3638       0.2023
   1428.64575       0.3582       0.0945    1428.64575       0.3582       0.0946
   1428.63049       0.4031       0.1341    1428.63049       0.4031       0.1341
   1428.61523       0.3156       0.0886    1428.61523       0.3156       0.0886
   1428.59998       0.3771       0.0770    1428.59998       0.3771       0.0770
   1428.58472       0.3347       0.0153    1428.58472       0.3347       0.0153
   1428.56946       0.2173       0.0702    1428.56946       0.2174       0.0702
   1428.55420       0.2821       0.1888    1428.55420       0.2821       0.1890
   1428.53894       0.3692       0.0687    1428.53894       0.3692       0.0687
   1428.52368       0.3385       0.1288    1428.52368       0.3385       0.1289
   1428.50842       0.3702       0.0870    1428.50842       0.3702       0.0871
   1428.49316       0.4411       0.0701    1428.49316       0.4412       0.0702
   1428.47791       0.4278       0.0338    1428.47791       0.4278       0.0338
   1428.46265       0.3352       0.0591    1428.46265       0.3352       0.0591
   1428.44739       0.3361       0.1055    1428.44739       0.3361       0.1056
   1428.43213       0.3041       0.0552    1428.43213       0.3041       0.0552
   1428.41687       0.3637       0.0299    1428.41687       0.3637       0.0300
   1428.40161       0.3319       0.0736    1428.40161       0.3319       0.0736
   1428.38635       0.3400       0.1840    1428.38635       0.3400       0.1841
   1428.37109       0.3832       0.2066    1428.37109       0.3832       0.2068
   1428.35583       0.4303       0.0619    1428.35583       0.4303       0.0620
   1428.34058       0.3429       0.0026    1428.34058       0.3429       0.0026
   1428.32532       0.4457       0.0985    1428.32532       0.4457       0.0986
   1428.31006       0.3479       0.0332    1428.31006       0.3479       0.0332
   1428.29480       0.3591       0.0621    1428.29480       0.3591       0.0622
   1428.27954       0.3501       0.0217    1428.27954       0.3501       0.0217
   1428.26428       0.3824      -0.0324    1428.26428       0.3824      -0.0324
   1428.24902       0.3221       0.0208    1428.24902       0.3221       0.0208
   1428.23376       0.4001       0.0910    1428.23376       0.4001       0.0910
   1428.21851       0.3643       0.0535    1428.21851       0.3643       0.0535
   1428.20325       0.3318       0.0624    1428.20325       0.3318       0.0625
   1428.18799       0.3278       0.0361    1428.18799       0.3278       0.0362
   1428.17273       0.3545       0.0294    1428.17273       0.3545       0.0294
   1428.15747       0.3406       0.0230    1428.15747       0.3406       0.0230
   1428.14221       0.4574       0.0350    1428.14221       0.4574       0.0351
   1428.12695       0.3949       0.0694    1428.12695       0.3949       0.0695
   1428.11169       0.4033       0.0172    1428.11169       0.4033       0.0172
   1428.09644       0.3889       0.0718    1428.09644       0.3889       0.0718
   1428.08118       0.4148       0.0611    1428.08118       0.4149       0.0611
   1428.06592       0.4300       0.1387    1428.06592       0.4300       0.1388
   1428.05066       0.3329      -0.0197    1428.05066       0.3329      -0.0197
   1428.03540       0.3710      -0.0754    1428.03540       0.3710      -0.0754
   1428.02014       0.3649      -0.0120    1428.02014       0.3649      -0.0120
   1428.00488       0.3387       0.0466    1428.00488       0.3387       0.0466
   1427.98962       0.3182       0.0446    1427.98962       0.3182       0.0446
   1427.97437       0.3405       0.0577    1427.97437       0.3406       0.0578
   1427.95911       0.3603       0.1283    1427.95911       0.3603       0.1284
   1427.94385       0.3937       0.0997    1427.94385       0.3937       0.0998
   1427.92859       0.3484       0.0640    1427.92859       0.3484       0.0640
   1427.91333       0.3498       0.0534    1427.91333       0.3498       0.0534
   1427.89807       0.4120      -0.0000    1427.89807       0.4120      -0.0000
   1427.88281       0.4053       0.0182    1427.88281       0.4053       0.0183
   1427.86755       0.3821       0.0108    1427.86755       0.3821       0.0108
   1427.85229       0.3788      -0.0472    1427.85229       0.3788      -0.0473
   1427.83704       0.3839       0.1014    1427.83704       0.3839       0.1015
   1427.82178       0.3695       0.0410    1427.82178       0.3695       0.0411
   1427.80652       0.4220      -0.0166    1427.80652       0.4220      -0.0166
   1427.79126       0.4460      -0.0277    1427.79126       0.4460      -0.0277
   1427.77600       0.3937       0.0060    1427.77600       0.3937       0.0060
   1427.76074       0.3536      -0.0195    1427.76074       0.3537      -0.0196
   1427.74548       0.3745      -0.0796    1427.74548       0.3745      -0.0797
   1427.73022       0.4104       0.0161    1427.73022       0.4104       0.0161
   1427.71497       0.3572      -0.0288    1427.71497       0.3572      -0.0288
   1427.69971       0.2913      -0.0075    1427.69971       0.2913      -0.0075
   1427.68445       0.4061      -0.0189    1427.68445       0.4062      -0.0189
   1427.66919       0.3310       0.0100    1427.66919       0.3310       0.0100
   1427.65393       0.3100       0.0545    1427.65393       0.3100       0.0546
   1427.63867       0.3945      -0.0042    1427.63867       0.3945      -0.0042
   1427.62341       0.4392       0.0600    1427.62341       0.4392       0.0600
   1427.60815       0.3384       0.1247    1427.60815       0.3384       0.1247
   1427.59290       0.4007      -0.0035    1427.59290       0.4007      -0.0035
   1427.57764       0.3715       0.1297    1427.57764       0.3715       0.1298
   1427.56238       0.3314       0.0470    1427.56238       0.3314       0.0470
   1427.54712       0.3568       0.0263    1427.54712       0.3568       0.0264
   1427.53186       0.3461      -0.0197    1427.53186       0.3461      -0.0197
   1427.51660       0.3518       0.0502    1427.51660       0.3518       0.0502
   1427.50134       0.3213      -0.0473    1427.50134       0.3213      -0.0473
   1427.48608       0.4764      -0.0135    1427.48608       0.4764      -0.0135
   1427.47083       0.3837      -0.0442    1427.47083       0.3837      -0.0442
   1427.45557       0.4582      -0.1022    1427.45557       0.4582      -0.1023
   1427.44031       0.3180      -0.0216    1427.44031       0.3180      -0.0216
   1427.42505       0.4397       0.0283    1427.42505       0.4397       0.0283
   1427.40979       0.3665      -0.0060    1427.40979       0.3665      -0.0060
   1427.39453       0.3563      -0.0257    1427.39453       0.3563      -0.0258
   1427.37927       0.4056      -0.0745    1427.37927       0.4056      -0.0745
   1427.36401       0.4275       0.0745    1427.36401       0.4275       0.0746
   1427.34875       0.4641       0.0235    1427.34875       0.4641       0.0236
   1427.33350       0.3913       0.0703    1427.33350       0.3913       0.0703
   1427.31824       0.3821       0.0115    1427.31824       0.3821       0.0115
   1427.30298       0.3826      -0.0103    1427.30298       0.3826      -0.0103
   1427.28772       0.3887      -0.0067    1427.28772       0.3887      -0.0067
   1427.27246       0.3401      -0.0728    1427.27246       0.3401      -0.0728
   1427.25720       0.3954       0.0093    1427.25720       0.3954       0.0093
   1427.24194       0.3279      -0.0035    1427.24194       0.3280      -0.0035
   1427.22668       0.3633      -0.0590    1427.22668       0.3634      -0.0591
   1427.21143       0.3600      -0.0533    1427.21143       0.3600      -0.0534
   1427.19617       0.4607      -0.0317    1427.19617       0.4607      -0.0318
   1427.18091       0.4202      -0.1390    1427.18091       0.4202      -0.1391
   1427.16565       0.3768      -0.0226    1427.16565       0.3768      -0.0226
   1427.15039       0.4136      -0.0676    1427.15039       0.4136      -0.0676
   1427.13513       0.4688      -0.0208    1427.13513       0.4688      -0.0208
   1427.11987       0.4271      -0.0529    1427.11987       0.4271      -0.0530
   1427.10461       0.3795      -0.0544    1427.10461       0.3795      -0.0545
   1427.08936       0.3904       0.0616    1427.08936       0.3905       0.0617
   1427.07410       0.4067       0.0392    1427.07410       0.4067       0.0392
   1427.05884       0.4787      -0.0201    1427.05884       0.4787      -0.0201
   1427.04358       0.4872       0.0414    1427.04358       0.4872       0.0414
   1427.02832       0.4158      -0.0233    1427.02832       0.4158      -0.0233
   1427.01306       0.3686       0.0244    1427.01306       0.3686       0.0244
   1426.99780       0.3121       0.0050    1426.99780       0.3121       0.0050
   1426.98254       0.3516      -0.0207    1426.98254       0.3516      -0.0207
   1426.96729       0.3419      -0.0313    1426.96729       0.3419      -0.0313
   1426.95203       0.4368      -0.0026    1426.95203       0.4368      -0.0026
   1426.93677       0.4612       0.0193    1426.93677       0.4612       0.0193
   1426.92151       0.4429      -0.0989    1426.92151       0.4429      -0.0990
   1426.90625       0.4346      -0.0346    1426.90625       0.4346      -0.0346
   1426.89099       0.4153       0.0258    1426.89099       0.4153       0.0258
   1426.87573       0.3690      -0.0466    1426.87573       0.3690      -0.0466
   1426.86047       0.4161      -0.0122    1426.86047       0.4161      -0.0122
   1426.84521       0.3572      -0.0335    1426.84521       0.3572      -0.0335
   1426.82996       0.4623      -0.0039    1426.82996       0.4623      -0.0039
   1426.81470       0.4708      -0.0485    1426.81470       0.4708      -0.0485
   1426.79944       0.3617       0.0127    1426.79944       0.3617       0.0127
   1426.78418       0.4067       0.0030    1426.78418       0.4068       0.0030
   1426.76892       0.3883      -0.1133    1426.76892       0.3883      -0.1134
   1426.75366       0.3726      -0.0316    1426.75366       0.3726      -0.0317
   1426.73840       0.4240      -0.0921    1426.73840       0.4240      -0.0922
   1426.72314       0.3300      -0.0700    1426.72314       0.3300      -0.0701
   1426.70789       0.4136      -0.0598    1426.70789       0.4136      -0.0599
   1426.69263       0.3813      -0.0682    1426.69263       0.3813      -0.0682
   1426.67737       0.4041      -0.0379    1426.67737       0.4041      -0.0379
   1426.66211       0.6960       0.0952    1426.66211       0.6960       0.0953
   1426.64685       0.2706       0.0306    1426.64685       0.2706       0.0306
   1426.63159       0.3911       0.0168    1426.63159       0.3911       0.0168
   1426.61633       0.6431       0.0243    1426.61633       0.6432       0.0243
   1426.60107       0.5643      -0.0335    1426.60107       0.5643      -0.0335
   1426.58582       0.3717       0.0159    1426.58582       0.3718       0.0159
   1426.57056       0.3417       0.0189    1426.57056       0.3417       0.0189
   1426.55530       0.4216       0.0517    1426.55530       0.4216       0.0517
   1426.54004       0.4458       0.0000    1426.54004       0.4458       0.0000
   1426.52478       0.4405       0.0306    1426.52478       0.4405       0.0307
   1426.50952       0.3907      -0.0417    1426.50952       0.3907      -0.0418
   1426.49426       0.3556      -0.0137    1426.49426       0.3556      -0.0137
   1426.47900       0.3786       0.0139    1426.47900       0.3786       0.0139
   1426.46375       0.3900      -0.0450    1426.46375       0.3900      -0.0450
   1426.44849       0.3934      -0.0434    1426.44849       0.3934      -0.0435
   1426.43323       0.4286      -0.0846    1426.43323       0.4286      -0.0847
   1426.41797       0.4304      -0.0556    1426.41797       0.4304      -0.0556
   1426.40271       0.3871       0.0044    1426.40271       0.3872       0.0044
   1426.38745       0.3320      -0.0325    1426.38745       0.3320      -0.0325
   1426.37219       0.4113      -0.0071    1426.37219       0.4114      -0.0071
   1426.35693       0.4610      -0.0606    1426.35693       0.4610      -0.0607
   1426.34167       0.3835      -0.0174    1426.34167       0.3835      -0.0174
   1426.32642       0.3783      -0.0447    1426.32642       0.3783      -0.0447
   1426.31116       0.4957      -0.0319    1426.31116       0.4957      -0.0319
   1426.29590       0.4549      -0.0702    1426.29590       0.4549      -0.0702
   1426.28064       0.3880      -0.0290    1426.28064       0.3880      -0.0290
   1426.26538       0.4336       0.0124    1426.26538       0.4336       0.0124
   1426.25012       0.4687      -0.0513    1426.25012       0.4688      -0.0513
   1426.23486       0.4515      -0.0526    1426.23486       0.4515      -0.0526
   1426.21960       0.3911      -0.0575    1426.21960       0.3911      -0.0576
   1426.20435       0.4007       0.0245    1426.20435       0.4007       0.0245
   1426.18909       0.3340      -0.1294    1426.18909       0.3340      -0.1294
   1426.17383       0.4135      -0.0117    1426.17383       0.4135      -0.0117
   1426.15857       0.3183      -0.0749    1426.15857       0.3183      -0.0749
   1426.14331       0.3720      -0.0316    1426.14331       0.3720      -0.0316
   1426.12805       0.4242      -0.0205    1426.12805       0.4242      -0.0205
   1426.11279       0.3977      -0.0123    1426.11279       0.3977      -0.0123
   1426.09753       0.3558       0.0004    1426.09753       0.3558       0.0004
   1426.08228       0.3731      -0.0438    1426.08228       0.3731      -0.0439
   1426.06702       0.4371      -0.0822    1426.06702       0.4371      -0.0823
   1426.05176       0.4059      -0.1345    1426.05176       0.4059      -0.1346
   1426.03650       0.3995       0.0716    1426.03650       0.3995       0.0717
   1426.02124       0.3407      -0.0058    1426.02124       0.3407      -0.0058
   1426.00598       0.3241       0.0585    1426.00598       0.3241       0.0585
   1425.99072       0.3998      -0.0139    1425.99072       0.3998      -0.0140
   1425.97546       0.3793      -0.0027    1425.97546       0.3793      -0.0027
   1425.96021       0.3963       0.0152    1425.96021       0.3963       0.0152
   1425.94495       0.3662      -0.0747    1425.94495       0.3662      -0.0747
   1425.92969       0.3588      -0.0026    1425.92969       0.3588      -0.0026
   1425.91443       0.3801       0.0548    1425.91443       0.3801       0.0549
   1425.89917       0.4210       0.0065    1425.89917       0.4210       0.0065
   1425.88391       0.3694      -0.0724    1425.88391       0.3694      -0.0724
   1425.86865       0.3729       0.0296    1425.86865       0.3729       0.0296
   1425.85339       0.3596      -0.0658    1425.85339       0.3596      -0.0658
   1425.83813       0.4245      -0.0665    1425.83813       0.4245      -0.0665
   1425.82288       0.3817      -0.0086    1425.82288       0.3817      -0.0086
   1425.80762       0.4304       0.0637    1425.80762       0.4304       0.0637
   1425.79236       0.4313       0.1533    1425.79236       0.4313       0.1534
   1425.77710       0.3552       0.0197    1425.77710       0.3552       0.0197
   1425.76184       0.4667       0.0769    1425.76184       0.4668       0.0769
   1425.74658       0.4181       0.0494    1425.74658       0.4181       0.0494
   1425.73132       0.5168       0.0787    1425.73132       0.5168       0.0788
   1425.71606       0.3917      -0.0262    1425.71606       0.3917      -0.0263
   1425.70081       0.4053      -0.0018    1425.70081       0.4053      -0.0018
   1425.68555       0.3961       0.0490    1425.68555       0.3961       0.0491
   1425.67029       0.3948       0.0309    1425.67029       0.3948       0.0309
   1425.65503       0.3629       0.0245    1425.65503       0.3629       0.0245
   1425.63977       0.4206      -0.0390    1425.63977       0.4206      -0.0391
   1425.62451       0.3799       0.0590    1425.62451       0.3799       0.0591
   1425.60925       0.3450       0.0678    1425.60925       0.3450       0.0679
   1425.59399       0.3224       0.1145    1425.59399       0.3224       0.1146
   1425.57874       0.4261       0.0429    1425.57874       0.4261       0.0430
   1425.56348       0.4149      -0.0104    1425.56348       0.4149      -0.0104
   1425.54822       0.3632      -0.0360    1425.54822       0.3632      -0.0360
   1425.53296       0.4344       0.0146    1425.53296       0.4344       0.0146
   1425.51770       0.4165       0.0189    1425.51770       0.4165       0.0189
   1425.50244       0.4399       0.0751    1425.50244       0.4399       0.0752
   1425.48718       0.3631       0.0579    1425.48718       0.3631       0.0579
   1425.47192       0.3394       0.0607    1425.47192       0.3394       0.0607
   1425.45667       0.3721       0.0560    1425.45667       0.3721       0.0560
   1425.44141       0.3545       0.1349    1425.44141       0.3545       0.1350
   1425.42615       0.3727      -0.0286    1425.42615       0.3727      -0.0286
   1425.41089       0.4328       0.0868    1425.41089       0.4328       0.0869
   1425.39563       0.3891      -0.0302    1425.39563       0.3891      -0.0302
   1425.38037       0.3132       0.0110    1425.38037       0.3132       0.0110
   1425.36511       0.3473       0.0237    1425.36511       0.3473       0.0237
   1425.34985       0.3428       0.0694    1425.34985       0.3428       0.0694
   1425.33459       0.3460       0.0251    1425.33459       0.3460       0.0251
   1425.31934       0.3205       0.0101    1425.31934       0.3205       0.0101
   1425.30408       0.3687       0.0287    1425.30408       0.3687       0.0287
   1425.28882       0.3439       0.0243    1425.28882       0.3439       0.0243
   1425.27356       0.4004       0.0293    1425.27356       0.4004       0.0293
   1425.25830       0.3753       0.0362    1425.25830       0.3754       0.0363
   1425.24304       0.2712      -0.0062    1425.24304       0.2712      -0.0062
   1425.22778       0.3790       0.0450    1425.22778       0.3790       0.0450
   1425.21252       0.3950       0.0110    1425.21252       0.3950       0.0110
   1425.19727       0.3927      -0.0175    1425.19727       0.3927      -0.0175
   1425.18201       0.4129       0.1248    1425.18201       0.4129       0.1248
   1425.16675       0.3156       0.0539    1425.16675       0.3157       0.0540
   1425.15149       0.3866       0.1022    1425.15149       0.3866       0.1023
   1425.13623       0.3910       0.0690    1425.13623       0.3911       0.0690
   1425.12097       0.3334       0.0293    1425.12097       0.3334       0.0293
   1425.10571       0.3893       0.0500    1425.10571       0.3893       0.0500
   1425.09045       0.3317       0.0366    1425.09045       0.3317       0.0366
   1425.07520       0.3619       0.0401    1425.07520       0.3619       0.0401
   1425.05994       0.3419       0.0903    1425.05994       0.3419       0.0904
   1425.04468       0.3805       0.0047    1425.04468       0.3806       0.0047
   1425.02942       0.2927       0.0133    1425.02942       0.2927       0.0133
   1425.01416       0.3141       0.0636    1425.01416       0.3141       0.0636
   1424.99890       0.2972       0.0261    1424.99890       0.2972       0.0261
   1424.98364       0.3733       0.0378    1424.98364       0.3733       0.0378
   1424.96838       0.3782       0.0394    1424.96838       0.3782       0.0394
   1424.95312       0.3441      -0.0089    1424.95312       0.3441      -0.0089
   1424.93787       0.3292       0.0523    1424.93787       0.3292       0.0524
   1424.92261       0.2588       0.0603    1424.92261       0.2588       0.0603
   1424.90735       0.3402       0.0470    1424.90735       0.3402       0.0471
   1424.89209       0.3511      -0.0340    1424.89209       0.3511      -0.0340
   1424.87683       0.3633       0.0387    1424.87683       0.3633       0.0388
   1424.86157       0.3818       0.0508    1424.86157       0.3818       0.0508
   1424.84631       0.3457       0.0491    1424.84631       0.3457       0.0491
   1424.83105       0.2552       0.0463    1424.83105       0.2552       0.0464
   1424.81580       0.2611       0.0736    1424.81580       0.2611       0.0737
   1424.80054       0.2450       0.1628    1424.80054       0.2450       0.1629
   1424.78528       0.2133       0.0632    1424.78528       0.2133       0.0633
   1424.77002       0.3703       0.0726    1424.77002       0.3703       0.0727
   1424.75476       0.3797       0.1070    1424.75476       0.3797       0.1070
   1424.73950       0.3868      -0.0272    1424.73950       0.3868      -0.0272
   1424.72424       0.3611       0.0430    1424.72424       0.3611       0.0430
   1424.70898       0.2865       0.0820    1424.70898       0.2865       0.0821
   1424.69373       0.3266       0.1188    1424.69373       0.3267       0.1188
   1424.67847       0.3048       0.0396    1424.67847       0.3048       0.0396
   1424.66321       0.3508       0.0499    1424.66321       0.3508       0.0499
   1424.64795       0.3154       0.0103    1424.64795       0.3154       0.0103
   1424.63269       0.3001       0.0759    1424.63269       0.3001       0.0760
   1424.61743       0.3290      -0.0079    1424.61743       0.3290      -0.0079
   1424.60217       0.2392       0.0840    1424.60217       0.2392       0.0841
   1424.58691       0.2571       0.0355    1424.58691       0.2571       0.0356
   1424.57166       0.3639       0.0825    1424.57166       0.3640       0.0826
   1424.55640       0.3585       0.0294    1424.55640       0.3585       0.0294
   1424.54114       0.2873      -0.0118    1424.54114       0.2873      -0.0118
   1424.52588       0.3166       0.0746    1424.52588       0.3166       0.0747
   1424.51062       0.3154       0.0114    1424.51062       0.3154       0.0114
   1424.49536       0.3205      -0.0175    1424.49536       0.3206      -0.0175
   1424.48010       0.3400       0.0358    1424.48010       0.3401       0.0358
   1424.46484       0.3018       0.0300    1424.46484       0.3018       0.0301
   1424.44958       0.2408       0.0326    1424.44958       0.2408       0.0326
   1424.43433       0.2587       0.1706    1424.43433       0.2587       0.1707
   1424.41907       0.3596       0.1679    1424.41907       0.3597       0.1680
   1424.40381       0.3059       0.1618    1424.40381       0.3059       0.1619
   1424.38855       0.2775       0.0708    1424.38855       0.2775       0.0709
   1424.37329       0.2653       0.0780    1424.37329       0.2653       0.0781
   1424.35803       0.3759       0.0750    1424.35803       0.3759       0.0750
   1424.34277       0.2830       0.1167    1424.34277       0.2830       0.1168
   1424.32751       0.2484       0.0756    1424.32751       0.2484       0.0757
   1424.31226       0.2433       0.0334    1424.31226       0.2433       0.0334
   1424.29700       0.3407       0.0334    1424.29700       0.3407       0.0334
   1424.28174       0.2805       0.0111    1424.28174       0.2805       0.0111
   1424.26648       0.3309       0.1545    1424.26648       0.3309       0.1546
   1424.25122       0.3617       0.1420    1424.25122       0.3617       0.1421
   1424.23596       0.2125       0.1595    1424.23596       0.2126       0.1596
   1424.22070       0.2573       0.1365    1424.22070       0.2573       0.1366
   1424.20544       0.3078       0.0565    1424.20544       0.3078       0.0565
   1424.19019       0.3009       0.0034    1424.19019       0.3009       0.0034
   1424.17493       0.2689       0.0462    1424.17493       0.2689       0.0463
   1424.15967       0.3247       0.1413    1424.15967       0.3247       0.1414
   1424.14441       0.2721       0.1191    1424.14441       0.2722       0.1192
   1424.12915       0.3435       0.1087    1424.12915       0.3435       0.1088
   1424.11389       0.3470       0.1091    1424.11389       0.3470       0.1091
   1424.09863       0.2562       0.0087    1424.09863       0.2562       0.0087
   1424.08337       0.2343       0.0935    1424.08337       0.2343       0.0936
   1424.06812       0.2964       0.0403    1424.06812       0.2964       0.0403
   1424.05286       0.2395       0.0637    1424.05286       0.2395       0.0638
   1424.03760       0.3062       0.1067    1424.03760       0.3062       0.1067
   1424.02234       0.3197       0.0514    1424.02234       0.3197       0.0514
   1424.00708       0.3328       0.0839    1424.00708       0.3328       0.0840
   1423.99182       0.3709       0.1515    1423.99182       0.3709       0.1516
   1423.97656       0.3077       0.1551    1423.97656       0.3077       0.1552
   1423.96130       0.2835       0.1814    1423.96130       0.2835       0.1816
   1423.94604       0.2893       0.1518    1423.94604       0.2893       0.1519
   1423.93079       0.3586       0.1152    1423.93079       0.3586       0.1152
   1423.91553       0.3130       0.0650    1423.91553       0.3130       0.0651
   1423.90027       0.3047       0.0574    1423.90027       0.3047       0.0574
   1423.88501       0.2972       0.1016    1423.88501       0.2972       0.1016
   1423.86975       0.1534       0.0747    1423.86975       0.1534       0.0747
   1423.85449       0.2288       0.1313    1423.85449       0.2288       0.1313
   1423.83923       0.2235       0.1323    1423.83923       0.2235       0.1324
   1423.82397       0.3133       0.1306    1423.82397       0.3133       0.1307
   1423.80872       0.2663       0.1627    1423.80872       0.2663       0.1628
   1423.79346       0.3823       0.0929    1423.79346       0.3823       0.0930
   1423.77820       0.3261       0.1065    1423.77820       0.3261       0.1066
   1423.76294       0.3097       0.1374    1423.76294       0.3097       0.1375
   1423.74768       0.3124       0.0949    1423.74768       0.3124       0.0949
   1423.73242       0.2861       0.1256    1423.73242       0.2862       0.1256
   1423.71716       0.2702       0.0729    1423.71716       0.2702       0.0729
   1423.70190       0.2970       0.0810    1423.70190       0.2970       0.0811
   1423.68665       0.2686       0.0929    1423.68665       0.2686       0.0929
   1423.67139       0.2129       0.0762    1423.67139       0.2129       0.0762
   1423.65613       0.1586       0.0881    1423.65613       0.1586       0.0882
   1423.64087       0.2548       0.1401    1423.64087       0.2548       0.1401
   1423.62561       0.3123       0.2084    1423.62561       0.3123       0.2085
   1423.61035       0.2815       0.1464    1423.61035       0.2815       0.1464
   1423.59509       0.2530       0.1130    1423.59509       0.2530       0.1131
   1423.57983       0.3494       0.1520    1423.57983       0.3494       0.1521
   1423.56458       0.2795       0.1314    1423.56458       0.2795       0.1315
   1423.54932       0.2179       0.1345    1423.54932       0.2179       0.1345
   1423.53406       0.2431       0.1088    1423.53406       0.2431       0.1089
   1423.51880       0.2619       0.0446    1423.51880       0.2619       0.0446
   1423.50354       0.1803       0.1326    1423.50354       0.1803       0.1327
   1423.48828       0.3097       0.1446    1423.48828       0.3097       0.1447
   1423.47302       0.3218       0.1914    1423.47302       0.3218       0.1915
   1423.45776       0.3887       0.1304    1423.45776       0.3887       0.1305
   1423.44250       0.3021       0.1931    1423.44250       0.3021       0.1933
   1423.42725       0.3258       0.1784    1423.42725       0.3258       0.1785
   1423.41199       0.1950       0.2045    1423.41199       0.1950       0.2046
   1423.39673       0.2620       0.1496    1423.39673       0.2620       0.1497
   1423.38147       0.2211       0.0987    1423.38147       0.2211       0.0988
   1423.36621       0.2416       0.1394    1423.36621       0.2416       0.1394
   1423.35095       0.3091       0.1427    1423.35095       0.3091       0.1428
   1423.33569       0.2186       0.1296    1423.33569       0.2186       0.1297
   1423.32043       0.2562       0.1958    1423.32043       0.2562       0.1959
   1423.30518       0.2819       0.1243    1423.30518       0.2819       0.1244
   1423.28992       0.2668       0.1250    1423.28992       0.2668       0.1250
   1423.27466       0.3108       0.1403    1423.27466       0.3108       0.1404
   1423.25940       0.3010       0.1787    1423.25940       0.3010       0.1788
   1423.24414       0.2186       0.1757    1423.24414       0.2186       0.1759
   1423.22888       0.2653       0.1742    1423.22888       0.2653       0.1743
   1423.21362       0.3107       0.3090    1423.21362       0.3107       0.3092
   1423.19836       0.3662       0.3099    1423.19836       0.3662       0.3101
   1423.18311       0.4480       0.3742    1423.18311       0.4480       0.3745
   1423.16785       0.5843       0.4203    1423.16785       0.5843       0.4206
   1423.15259       0.7332       0.6711    1423.15259       0.7332       0.6715
   1423.13733       0.9412       0.7145    1423.13733       0.9412       0.7150
   1423.12207       1.0324       0.9020    1423.12207       1.0324       0.9026
   1423.10681       1.2571       1.0576    1423.10681       1.2571       1.0582
   1423.09155       1.5979       1.4445    1423.09155       1.5980       1.4454
   1423.07629       1.9816       1.8164    1423.07629       1.9816       1.8176
   1423.06104       2.5275       2.3757    1423.06104       2.5276       2.3772
   1423.04578       3.2374       2.9315    1423.04578       3.2375       2.9333
   1423.03052       3.5869       3.3217    1423.03052       3.5870       3.3238
   1423.01526       4.1416       4.0195    1423.01526       4.1417       4.0221
   1423.00000       4.3185       4.1737    1423.00000       4.3186       4.1764
   1422.98474       4.4498       4.3280    1422.98474       4.4500       4.3307
   1422.96948       4.4697       4.2549    1422.96948       4.4699       4.2576
   1422.95422       4.6145       4.1645    1422.95422       4.6146       4.1672
   1422.93896       4.5220       4.2743    1422.93896       4.5221       4.2771
   1422.92371       4.6374       4.2925    1422.92371       4.6375       4.2952
   1422.90845       4.4594       4.2349    1422.90845       4.4596       4.2375
   1422.89319       4.3626       4.0881    1422.89319       4.3627       4.0907
   1422.87793       4.2608       3.9601    1422.87793       4.2610       3.9626
   1422.86267       3.9376       3.8277    1422.86267       3.9377       3.8302
   1422.84741       3.7178       3.5317    1422.84741       3.7179       3.5340
   1422.83215       3.5902       3.2169    1422.83215       3.5903       3.2189
   1422.81689       3.2062       3.0358    1422.81689       3.2063       3.0377
   1422.80164       3.1010       2.8628    1422.80164       3.1011       2.8646
   1422.78638       2.7703       2.7238    1422.78638       2.7703       2.7255
   1422.77112       2.6772       2.4934    1422.77112       2.6772       2.4950
   1422.75586       2.4251       2.2386    1422.75586       2.4252       2.2400
   1422.74060       2.4066       2.2433    1422.74060       2.4066       2.2448
   1422.72534       2.2481       2.1087    1422.72534       2.2482       2.1100
   1422.71008       2.2809       2.0657    1422.71008       2.2809       2.0670
   1422.69482       2.2812       2.1338    1422.69482       2.2812       2.1352
   1422.67957       2.2587       2.1477    1422.67957       2.2588       2.1490
   1422.66431       2.1375       2.0934    1422.66431       2.1376       2.0947
   1422.64905       2.1445       1.9814    1422.64905       2.1445       1.9827
   1422.63379       2.1038       1.8790    1422.63379       2.1039       1.8802
   1422.61853       2.1327       1.9171    1422.61853       2.1328       1.9184
   1422.60327       2.0405       1.8171    1422.60327       2.0406       1.8182
   1422.58801       1.9615       1.8039    1422.58801       1.9615       1.8051
   1422.57275       1.9287       1.8371    1422.57275       1.9288       1.8382
   1422.55750       1.9344       1.7547    1422.55750       1.9344       1.7558
   1422.54224       1.7753       1.7089    1422.54224       1.7753       1.7100
   1422.52698       1.7761       1.6176    1422.52698       1.7762       1.6186
   1422.51172       1.6518       1.5945    1422.51172       1.6519       1.5955
   1422.49646       1.5606       1.4421    1422.49646       1.5606       1.4430
   1422.48120       1.4875       1.4124    1422.48120       1.4876       1.4133
   1422.46594       1.3923       1.3904    1422.46594       1.3923       1.3913
   1422.45068       1.2784       1.2236    1422.45068       1.2784       1.2243
   1422.43542       1.2752       1.1481    1422.43542       1.2752       1.1488
   1422.42017       1.1728       1.1185    1422.42017       1.1729       1.1192
   1422.40491       1.1610       1.0516    1422.40491       1.1610       1.0523
   1422.38965       1.1077       1.0458    1422.38965       1.1077       1.0465
   1422.37439       0.9562       0.9340    1422.37439       0.9562       0.9346
   1422.35913       1.0579       0.8094    1422.35913       1.0579       0.8099
   1422.34387       0.8340       0.8046    1422.34387       0.8340       0.8051
   1422.32861       0.7774       0.7429    1422.32861       0.7774       0.7434
   1422.31335       0.6992       0.7680    1422.31335       0.6992       0.7685
   1422.29810       0.7751       0.7084    1422.29810       0.7752       0.7089
   1422.28284       0.6703       0.6220    1422.28284       0.6704       0.6224
   1422.26758       0.4938       0.6009    1422.26758       0.4939       0.6012
   1422.25232       0.5181       0.5444    1422.25232       0.5181       0.5447
   1422.23706       0.5805       0.4974    1422.23706       0.5806       0.4977
   1422.22180       0.4333       0.4295    1422.22180       0.4333       0.4298
   1422.20654       0.3871       0.3893    1422.20654       0.3871       0.3895
   1422.19128       0.4496       0.3341    1422.19128       0.4496       0.3343
   1422.17603       0.3484       0.4574    1422.17603       0.3484       0.4577
   1422.16077       0.3432       0.3661    1422.16077       0.3432       0.3663
   1422.14551       0.4171       0.3568    1422.14551       0.4172       0.3570
   1422.13025       0.4516       0.3686    1422.13025       0.4516       0.3689
   1422.11499       0.3188       0.3737    1422.11499       0.3188       0.3740
   1422.09973       0.2305       0.3539    1422.09973       0.2305       0.3541
   1422.08447       0.2126       0.2783    1422.08447       0.2126       0.2785
   1422.06921       0.3156       0.2977    1422.06921       0.3156       0.2979
   1422.05396       0.2404       0.2909    1422.05396       0.2404       0.2911
   1422.03870       0.2716       0.3086    1422.03870       0.2716       0.3088
   1422.02344       0.2542       0.3316    1422.02344       0.2542       0.3318
   1422.00818       0.2252       0.3216    1422.00818       0.2252       0.3218
   1421.99292       0.2007       0.2231    1421.99292       0.2007       0.2233
   1421.97766       0.2483       0.2884    1421.97766       0.2483       0.2886
   1421.96240       0.2846       0.2192    1421.96240       0.2847       0.2193
   1421.94714       0.2511       0.2887    1421.94714       0.2511       0.2888
   1421.93188       0.1971       0.2612    1421.93188       0.1971       0.2614
   1421.91663       0.3464       0.3397    1421.91663       0.3464       0.3400
   1421.90137       0.3285       0.2829    1421.90137       0.3285       0.2830
   1421.88611       0.2688       0.3515    1421.88611       0.2688       0.3517
   1421.87085       0.3676       0.2322    1421.87085       0.3676       0.2323
   1421.85559       0.3372       0.3445    1421.85559       0.3372       0.3447
   1421.84033       0.2121       0.2880    1421.84033       0.2122       0.2882
   1421.82507       0.3194       0.3584    1421.82507       0.3195       0.3587
   1421.80981       0.3442       0.2637    1421.80981       0.3442       0.2639
   1421.79456       0.3182       0.2260    1421.79456       0.3182       0.2261
   1421.77930       0.2517       0.2259    1421.77930       0.2517       0.2260
   1421.76404       0.2377       0.3154    1421.76404       0.2377       0.3156
   1421.74878       0.3244       0.3465    1421.74878       0.3244       0.3467
   1421.73352       0.3711       0.3480    1421.73352       0.3711       0.3482
   1421.71826       0.3133       0.3264    1421.71826       0.3133       0.3266
   1421.70300       0.2382       0.2981    1421.70300       0.2382       0.2983
   1421.68774       0.3812       0.3251    1421.68774       0.3812       0.3253
   1421.67249       0.3518       0.2943    1421.67249       0.3518       0.2945
   1421.65723       0.2529       0.2958    1421.65723       0.2530       0.2960
   1421.64197       0.3129       0.3443    1421.64197       0.3129       0.3445
   1421.62671       0.3562       0.3104    1421.62671       0.3562       0.3106
   1421.61145       0.3515       0.3649    1421.61145       0.3515       0.3652
   1421.59619       0.3120       0.2888    1421.59619       0.3120       0.2890
   1421.58093       0.2882       0.2221    1421.58093       0.2882       0.2222
   1421.56567       0.3166       0.2629    1421.56567       0.3166       0.2631
   1421.55042       0.2557       0.2646    1421.55042       0.2557       0.2648
   1421.53516       0.2134       0.2750    1421.53516       0.2134       0.2752
   1421.51990       0.3720       0.3166    1421.51990       0.3720       0.3168
   1421.50464       0.3259       0.3556    1421.50464       0.3259       0.3558
   1421.48938       0.3254       0.3299    1421.48938       0.3254       0.3301
   1421.47412       0.3782       0.3590    1421.47412       0.3782       0.3593
   1421.45886       0.3064       0.2795    1421.45886       0.3064       0.2797
   1421.44360       0.3362       0.3135    1421.44360       0.3363       0.3137
   1421.42834       0.3617       0.2996    1421.42834       0.3617       0.2998
   1421.41309       0.3588       0.2984    1421.41309       0.3588       0.2986
   1421.39783       0.3253       0.2504    1421.39783       0.3253       0.2506
   1421.38257       0.3178       0.3934    1421.38257       0.3178       0.3937
   1421.36731       0.3048       0.2754    1421.36731       0.3048       0.2755
   1421.35205       0.3255       0.2918    1421.35205       0.3255       0.2920
   1421.33679       0.3380       0.2773    1421.33679       0.3380       0.2775
   1421.32153       0.2408       0.3163    1421.32153       0.2408       0.3165
   1421.30627       0.3491       0.3511    1421.30627       0.3491       0.3514
   1421.29102       0.2662       0.2867    1421.29102       0.2662       0.2868
   1421.27576       0.2112       0.2580    1421.27576       0.2112       0.2581
   1421.26050       0.3391       0.2011    1421.26050       0.3391       0.2013
   1421.24524       0.3844       0.3008    1421.24524       0.3844       0.3010
   1421.22998       0.2344       0.3340    1421.22998       0.2344       0.3342
   1421.21472       0.2931       0.3751    1421.21472       0.2931       0.3753
   1421.19946       0.3253       0.3316    1421.19946       0.3253       0.3318
   1421.18420       0.3310       0.2243    1421.18420       0.3310       0.2244
   1421.16895       0.4517       0.3721    1421.16895       0.4518       0.3723
   1421.15369       0.3507       0.3519    1421.15369       0.3507       0.3521
   1421.13843       0.3512       0.3344    1421.13843       0.3512       0.3347
   1421.12317       0.2705       0.4045    1421.12317       0.2705       0.4047
   1421.10791       0.3315       0.3958    1421.10791       0.3315       0.3960
   1421.09265       0.3089       0.3701    1421.09265       0.3089       0.3703
   1421.07739       0.3124       0.2754    1421.07739       0.3124       0.2756
   1421.06213       0.3028       0.3975    1421.06213       0.3028       0.3977
   1421.04688       0.3226       0.3542    1421.04688       0.3227       0.3544
   1421.03162       0.2932       0.3637    1421.03162       0.2932       0.3639
   1421.01636       0.3639       0.3135    1421.01636       0.3639       0.3137
   1421.00110       0.3338       0.2915    1421.00110       0.3338       0.2917
   1420.98584       0.2797       0.3246    1420.98584       0.2797       0.3248
   1420.97058       0.3123       0.3218    1420.97058       0.3123       0.3220
   1420.95532       0.1883       0.3187    1420.95532       0.1883       0.3189
   1420.94006       0.1784       0.3541    1420.94006       0.1784       0.3544
   1420.92480       0.3148       0.3037    1420.92480       0.3148       0.3038
   1420.90955       0.1106       0.2761    1420.90955       0.1106       0.2763
   1420.89429       0.1921       0.2237    1420.89429       0.1921       0.2239
   1420.87903       0.1211       0.1559    1420.87903       0.1211       0.1560
   1420.86377       0.1555       0.1905    1420.86377       0.1555       0.1906
   1420.84851       0.1657       0.2442    1420.84851       0.1657       0.2443
   1420.83325       0.2477       0.2723    1420.83325       0.2477       0.2725
   1420.81799       0.1182       0.2149    1420.81799       0.1182       0.2150
   1420.80273       0.2088       0.2509    1420.80273       0.2088       0.2511
   1420.78748       0.2443       0.2389    1420.78748       0.2443       0.2391
   1420.77222       0.2880       0.3516    1420.77222       0.2880       0.3518
   1420.75696       0.3361       0.4665    1420.75696       0.3361       0.4668
   1420.74170       0.4882       0.4932    1420.74170       0.4883       0.4936
   1420.72644       0.5702       0.6800    1420.72644       0.5702       0.6805
   1420.71118       0.8046       0.9662    1420.71118       0.8046       0.9668
   1420.69592       1.1691       0.9325    1420.69592       1.1691       0.9331
   1420.68066       1.1873       1.1711    1420.68066       1.1873       1.1719
   1420.66541       1.3638       1.4087    1420.66541       1.3638       1.4096
   1420.65015       1.3136       1.3267    1420.65015       1.3137       1.3275
   1420.63489       1.3283       1.2824    1420.63489       1.3284       1.2832
   1420.61963       1.4796       1.3342    1420.61963       1.4796       1.3351
   1420.60437       1.6222       1.3923    1420.60437       1.6223       1.3932
   1420.58911       0.8326       0.8298    1420.58911       0.8327       0.8304
   1420.57385       0.3625       0.2447    1420.57385       0.3625       0.2449
   1420.55859       0.0583      -0.0825    1420.55859       0.0583      -0.0826
   1420.54333      -0.6185      -0.6636    1420.54333      -0.6185      -0.6640
   1420.52808      -0.7998      -0.6776    1420.52808      -0.7998      -0.6781
   1420.51282      -0.6157      -0.4767    1420.51282      -0.6157      -0.4770
   1420.49756      -0.2268      -0.0932    1420.49756      -0.2268      -0.0932
   1420.48230      -0.8250      -0.4982    1420.48230      -0.8250      -0.4985
   1420.46704      -1.0165      -0.8145    1420.46704      -1.0165      -0.8151
   1420.45178      -1.2455      -1.0784    1420.45178      -1.2456      -1.0790
   1420.43652      -1.8107      -1.6048    1420.43652      -1.8108      -1.6059
   1420.42126       0.9510       1.1221    1420.42126       0.9511       1.1228
   1420.40601       5.0040       4.8881    1420.40601       5.0041       4.8912
   1420.39075       1.9506       2.1351    1420.39075       1.9507       2.1364
   1420.37549       0.5527       0.7296    1420.37549       0.5527       0.7301
   1420.36023       0.7229       0.8007    1420.36023       0.7229       0.8012
   1420.34497       0.6886       0.7560    1420.34497       0.6887       0.7565
   1420.32971       0.4722       0.4480    1420.32971       0.4722       0.4483
   1420.31445       0.4319       0.4224    1420.31445       0.4319       0.4226
   1420.29919       0.2452       0.3524    1420.29919       0.2452       0.3526
   1420.28394       0.3517       0.2995    1420.28394       0.3517       0.2997
   1420.26868       0.2248       0.3211    1420.26868       0.2249       0.3213
   1420.25342       0.2330       0.3510    1420.25342       0.2330       0.3512
   1420.23816       0.2997       0.4960    1420.23816       0.2997       0.4963
   1420.22290       0.2735       0.4834    1420.22290       0.2735       0.4837
   1420.20764       0.2943       0.3406    1420.20764       0.2943       0.3408
   1420.19238       0.3151       0.4367    1420.19238       0.3151       0.4370
   1420.17712       0.3651       0.4456    1420.17712       0.3651       0.4459
   1420.16187       0.2922       0.3847    1420.16187       0.2922       0.3850
   1420.14661       0.3522       0.4155    1420.14661       0.3523       0.4158
   1420.13135       0.3509       0.4494    1420.13135       0.3509       0.4497
   1420.11609       0.4513       0.4507    1420.11609       0.4514       0.4510
   1420.10083       0.3361       0.3990    1420.10083       0.3362       0.3993
   1420.08557       0.3525       0.4504    1420.08557       0.3525       0.4507
   1420.07031       0.3440       0.4237    1420.07031       0.3440       0.4240
   1420.05505       0.3303       0.3962    1420.05505       0.3303       0.3965
   1420.03979       0.2712       0.4005    1420.03979       0.2712       0.4007
   1420.02454       0.3496       0.4137    1420.02454       0.3496       0.4139
   1420.00928       0.3367       0.4251    1420.00928       0.3367       0.4253
   1419.99402       0.2827       0.4034    1419.99402       0.2827       0.4037
   1419.97876       0.2942       0.3995    1419.97876       0.2942       0.3997
   1419.96350       0.3304       0.4358    1419.96350       0.3304       0.4361
   1419.94824       0.3634       0.2688    1419.94824       0.3634       0.2690
   1419.93298       0.3127       0.3590    1419.93298       0.3127       0.3592
   1419.91772       0.2932       0.3897    1419.91772       0.2932       0.3900
   1419.90247       0.2671       0.4164    1419.90247       0.2671       0.4166
   1419.88721       0.3268       0.3626    1419.88721       0.3268       0.3629
   1419.87195       0.3994       0.4018    1419.87195       0.3994       0.4021
   1419.85669       0.3428       0.3756    1419.85669       0.3428       0.3758
   1419.84143       0.3231       0.4168    1419.84143       0.3231       0.4171
   1419.82617       0.3754       0.4354    1419.82617       0.3754       0.4356
   1419.81091       0.2082       0.4384    1419.81091       0.2082       0.4387
   1419.79565       0.3088       0.3743    1419.79565       0.3088       0.3745
   1419.78040       0.2916       0.4723    1419.78040       0.2916       0.4726
   1419.76514       0.3486       0.3316    1419.76514       0.3486       0.3318
   1419.74988       0.2331       0.4188    1419.74988       0.2331       0.4191
   1419.73462       0.2525       0.5307    1419.73462       0.2525       0.5311
   1419.71936       0.3018       0.4685    1419.71936       0.3018       0.4688
   1419.70410       0.3358       0.4558    1419.70410       0.3358       0.4561
   1419.68884       0.3473       0.4371    1419.68884       0.3473       0.4374
   1419.67358       0.2670       0.4568    1419.67358       0.2670       0.4571
   1419.65833       0.3829       0.3844    1419.65833       0.3829       0.3847
   1419.64307       0.2332       0.4023    1419.64307       0.2332       0.4026
   1419.62781       0.2426       0.4715    1419.62781       0.2426       0.4718
   1419.61255       0.2907       0.4389    1419.61255       0.2907       0.4392
   1419.59729       0.2359       0.4481    1419.59729       0.2359       0.4484
   1419.58203       0.2426       0.4055    1419.58203       0.2426       0.4058
   1419.56677       0.3064       0.5211    1419.56677       0.3064       0.5214
   1419.55151       0.2162       0.4891    1419.55151       0.2162       0.4894
   1419.53625       0.2711       0.4139    1419.53625       0.2711       0.4142
   1419.52100       0.2494       0.4760    1419.52100       0.2494       0.4763
   1419.50574       0.2503       0.4541    1419.50574       0.2503       0.4543
   1419.49048       0.2671       0.4295    1419.49048       0.2671       0.4298
   1419.47522       0.2184       0.5368    1419.47522       0.2184       0.5372
   1419.45996       0.2238       0.4480    1419.45996       0.2238       0.4483
   1419.44470       0.2112       0.4752    1419.44470       0.2112       0.4756
   1419.42944       0.2081       0.4081    1419.42944       0.2081       0.4084
   1419.41418       0.3119       0.4588    1419.41418       0.3119       0.4591
   1419.39893       0.2502       0.4917    1419.39893       0.2502       0.4920
   1419.38367       0.2963       0.4438    1419.38367       0.2963       0.4441
   1419.36841       0.2198       0.5041    1419.36841       0.2198       0.5044
   1419.35315       0.2128       0.4686    1419.35315       0.2128       0.4689
   1419.33789       0.2623       0.4832    1419.33789       0.2623       0.4835
   1419.32263       0.2333       0.4154    1419.32263       0.2333       0.4156
   1419.30737       0.2812       0.5200    1419.30737       0.2812       0.5204
   1419.29211       0.2552       0.4324    1419.29211       0.2552       0.4326
   1419.27686       0.2702       0.4014    1419.27686       0.2702       0.4016
   1419.26160       0.2599       0.3758    1419.26160       0.2599       0.3761
   1419.24634       0.1946       0.4506    1419.24634       0.1947       0.4508
   1419.23108       0.1893       0.5421    1419.23108       0.1893       0.5424
   1419.21582       0.2457       0.4137    1419.21582       0.2457       0.4140
   1419.20056       0.1352       0.4843    1419.20056       0.1352       0.4846
   1419.18530       0.2330       0.4895    1419.18530       0.2330       0.4898
   1419.17004       0.2440       0.4229    1419.17004       0.2440       0.4231
   1419.15479       0.2778       0.4092    1419.15479       0.2779       0.4095
   1419.13953       0.1905       0.4702    1419.13953       0.1905       0.4705
   1419.12427       0.2847       0.4176    1419.12427       0.2847       0.4179
   1419.10901       0.2071       0.5538    1419.10901       0.2071       0.5541
   1419.09375       0.2518       0.4830    1419.09375       0.2518       0.4833
   1419.07849       0.1478       0.4760    1419.07849       0.1478       0.4763
   1419.06323       0.2337       0.5106    1419.06323       0.2338       0.5109
   1419.04797       0.2059       0.5839    1419.04797       0.2059       0.5842
   1419.03271       0.2739       0.5109    1419.03271       0.2739       0.5112
   1419.01746       0.2211       0.4075    1419.01746       0.2211       0.4078
   1419.00220       0.2150       0.5309    1419.00220       0.2150       0.5313
   1418.98694       0.2174       0.4694    1418.98694       0.2174       0.4697
   1418.97168       0.1977       0.4862    1418.97168       0.1977       0.4865
   1418.95642       0.1804       0.4309    1418.95642       0.1804       0.4312
   1418.94116       0.1870       0.4433    1418.94116       0.1870       0.4435
   1418.92590       0.1660       0.4535    1418.92590       0.1660       0.4538
   1418.91064       0.2199       0.4057    1418.91064       0.2199       0.4060
   1418.89539       0.1792       0.4431    1418.89539       0.1792       0.4434
   1418.88013       0.2497       0.3724    1418.88013       0.2497       0.3726
   1418.86487       0.0997       0.4190    1418.86487       0.0997       0.4192
   1418.84961       0.2074       0.4919    1418.84961       0.2074       0.4922
   1418.83435       0.2401       0.4751    1418.83435       0.2401       0.4754
   1418.81909       0.2505       0.3637    1418.81909       0.2505       0.3639
   1418.80383       0.2324       0.4519    1418.80383       0.2324       0.4522
   1418.78857       0.1633       0.4684    1418.78857       0.1633       0.4687
   1418.77332       0.2676       0.5227    1418.77332       0.2676       0.5231
   1418.75806       0.1698       0.5057    1418.75806       0.1698       0.5060
   1418.74280       0.1357       0.5460    1418.74280       0.1357       0.5464
   1418.72754       0.2247       0.5581    1418.72754       0.2247       0.5584
   1418.71228       0.2674       0.4334    1418.71228       0.2674       0.4337
   1418.69702       0.2071       0.4971    1418.69702       0.2071       0.4974
   1418.68176       0.2176       0.5815    1418.68176       0.2176       0.5819
   1418.66650       0.2548       0.5151    1418.66650       0.2548       0.5154
   1418.65125       0.2018       0.4917    1418.65125       0.2018       0.4920
   1418.63599       0.2255       0.5423    1418.63599       0.2256       0.5427
   1418.62073       0.1725       0.4681    1418.62073       0.1725       0.4684
   1418.60547       0.3229       0.5504    1418.60547       0.3229       0.5508
   1418.59021       0.2825       0.6007    1418.59021       0.2825       0.6011
   1418.57495       0.1897       0.4683    1418.57495       0.1897       0.4685
   1418.55969       0.2646       0.5281    1418.55969       0.2646       0.5285
   1418.54443       0.2103       0.5645    1418.54443       0.2103       0.5648
   1418.52917       0.2078       0.4012    1418.52917       0.2078       0.4015
   1418.51392       0.1598       0.4705    1418.51392       0.1598       0.4708
   1418.49866       0.2105       0.5228    1418.49866       0.2105       0.5231
   1418.48340       0.1644       0.4936    1418.48340       0.1644       0.4940
   1418.46814       0.2304       0.5008    1418.46814       0.2305       0.5011
   1418.45288       0.1614       0.5001    1418.45288       0.1614       0.5004
   1418.43762       0.2144       0.4598    1418.43762       0.2144       0.4601
   1418.42236       0.2562       0.5452    1418.42236       0.2562       0.5455
   1418.40710       0.2557       0.5546    1418.40710       0.2557       0.5549
   1418.39185       0.2593       0.5674    1418.39185       0.2594       0.5678
   1418.37659       0.1837       0.4958    1418.37659       0.1837       0.4961
   1418.36133       0.2070       0.4511    1418.36133       0.2070       0.4514
   1418.34607       0.2716       0.5100    1418.34607       0.2716       0.5103
   1418.33081       0.2296       0.4762    1418.33081       0.2296       0.4765
   1418.31555       0.2387       0.4458    1418.31555       0.2387       0.4461
   1418.30029       0.2241       0.4751    1418.30029       0.2241       0.4754
   1418.28503       0.2455       0.4718    1418.28503       0.2455       0.4721
   1418.26978       0.2407       0.5436    1418.26978       0.2407       0.5439
   1418.25452       0.2170       0.4769    1418.25452       0.2170       0.4772
   1418.23926       0.3405       0.4101    1418.23926       0.3405       0.4104
   1418.22400       0.2737       0.3923    1418.22400       0.2737       0.3925
   1418.20874       0.2361       0.4909    1418.20874       0.2361       0.4912
   1418.19348       0.2600       0.4914    1418.19348       0.2600       0.4917
   1418.17822       0.2706       0.5274    1418.17822       0.2706       0.5277
   1418.16296       0.1603       0.5139    1418.16296       0.1603       0.5142
   1418.14771       0.2267       0.4476    1418.14771       0.2267       0.4479
   1418.13245       0.2561       0.4336    1418.13245       0.2561       0.4338
   1418.11719       0.3158       0.4253    1418.11719       0.3159       0.4256
   1418.10193       0.2534       0.4964    1418.10193       0.2534       0.4967
   1418.08667       0.2390       0.4767    1418.08667       0.2390       0.4770
   1418.07141       0.3520       0.4780    1418.07141       0.3520       0.4783
   1418.05615       0.2943       0.4937    1418.05615       0.2943       0.4940
   1418.04089       0.2836       0.4767    1418.04089       0.2836       0.4770
   1418.02563       0.2773       0.4839    1418.02563       0.2773       0.4842
   1418.01038       0.2573       0.4737    1418.01038       0.2573       0.4740
   1417.99512       0.2965       0.5725    1417.99512       0.2965       0.5729
   1417.97986       0.3007       0.5584    1417.97986       0.3007       0.5588
   1417.96460       0.3875       0.5747    1417.96460       0.3875       0.5751
   1417.94934       0.3076       0.6001    1417.94934       0.3076       0.6005
   1417.93408       0.3110       0.6315    1417.93408       0.3110       0.6319
   1417.91882       0.3322       0.5544    1417.91882       0.3323       0.5548
   1417.90356       0.3685       0.5071    1417.90356       0.3685       0.5074
   1417.88831       0.3035       0.5666    1417.88831       0.3035       0.5670
   1417.87305       0.2834       0.5303    1417.87305       0.2834       0.5306
   1417.85779       0.3146       0.4917    1417.85779       0.3146       0.4920
   1417.84253       0.2836       0.4969    1417.84253       0.2836       0.4972
   1417.82727       0.2394       0.4866    1417.82727       0.2394       0.4869
   1417.81201       0.2984       0.4920    1417.81201       0.2984       0.4923
   1417.79675       0.2495       0.4841    1417.79675       0.2495       0.4844
   1417.78149       0.1790       0.4673    1417.78149       0.1790       0.4676
   1417.76624       0.3854       0.4862    1417.76624       0.3854       0.4865
   1417.75098       0.3516       0.5215    1417.75098       0.3516       0.5218
   1417.73572       0.3942       0.4705    1417.73572       0.3942       0.4708
   1417.72046       0.3375       0.5702    1417.72046       0.3375       0.5706
   1417.70520       0.2978       0.5152    1417.70520       0.2978       0.5155
   1417.68994       0.3263       0.5172    1417.68994       0.3263       0.5176
   1417.67468       0.3772       0.4451    1417.67468       0.3772       0.4453
   1417.65942       0.3288       0.4487    1417.65942       0.3288       0.4490
   1417.64417       0.4135       0.4752    1417.64417       0.4135       0.4755
   1417.62891       0.4215       0.5320    1417.62891       0.4216       0.5323
   1417.61365       0.3962       0.5459    1417.61365       0.3963       0.5462
   1417.59839       0.4276       0.5657    1417.59839       0.4276       0.5661
   1417.58313       0.3379       0.6159    1417.58313       0.3379       0.6163
   1417.56787       0.3517       0.5403    1417.56787       0.3517       0.5406
   1417.55261       0.3771       0.5891    1417.55261       0.3771       0.5895
   1417.53735       0.3438       0.4787    1417.53735       0.3439       0.4790
   1417.52209       0.2757       0.4830    1417.52209       0.2757       0.4833
   1417.50684       0.2971       0.5302    1417.50684       0.2971       0.5305
   1417.49158       0.4172       0.5037    1417.49158       0.4172       0.5040
   1417.47632       0.3807       0.4548    1417.47632       0.3807       0.4551
   1417.46106       0.3613       0.5440    1417.46106       0.3613       0.5443
   1417.44580       0.2984       0.5349    1417.44580       0.2984       0.5352
   1417.43054       0.4091       0.4664    1417.43054       0.4092       0.4667
   1417.41528       0.3646       0.5972    1417.41528       0.3646       0.5976
   1417.40002       0.4520       0.5401    1417.40002       0.4521       0.5405
   1417.38477       0.3451       0.5422    1417.38477       0.3451       0.5425
   1417.36951       0.3850       0.4899    1417.36951       0.3850       0.4902
   1417.35425       0.3740       0.4867    1417.35425       0.3740       0.4870
   1417.33899       0.3414       0.5593    1417.33899       0.3415       0.5597
   1417.32373       0.4286       0.5883    1417.32373       0.4286       0.5886
   1417.30847       0.4000       0.5047    1417.30847       0.4000       0.5051
   1417.29321       0.3705       0.5734    1417.29321       0.3705       0.5737
   1417.27795       0.5309       0.5226    1417.27795       0.5309       0.5230
   1417.26270       0.4296       0.5566    1417.26270       0.4296       0.5569
   1417.24744       0.4377       0.5131    1417.24744       0.4377       0.5134
   1417.23218       0.4954       0.5078    1417.23218       0.4954       0.5081
   1417.21692       0.4769       0.3893    1417.21692       0.4769       0.3895
   1417.20166       0.4240       0.6022    1417.20166       0.4240       0.6026
   1417.18640       0.5169       0.5542    1417.18640       0.5169       0.5545
   1417.17114       0.4639       0.4796    1417.17114       0.4639       0.4799
   1417.15588       0.4272       0.5190    1417.15588       0.4272       0.5193
   1417.14062       0.5555       0.4728    1417.14062       0.5555       0.4731
   1417.12537       0.3893       0.5322    1417.12537       0.3893       0.5326
   1417.11011       0.4320       0.5744    1417.11011       0.4320       0.5748
   1417.09485       0.4390       0.4375    1417.09485       0.4390       0.4377
   1417.07959       0.5392       0.5437    1417.07959       0.5392       0.5440
   1417.06433       0.5495       0.5067    1417.06433       0.5496       0.5070
   1417.04907       0.4482       0.4909    1417.04907       0.4482       0.4912
   1417.03381       0.4534       0.5128    1417.03381       0.4534       0.5131
   1417.01855       0.4762       0.4961    1417.01855       0.4762       0.4965
   1417.00330       0.5253       0.6283    1417.00330       0.5254       0.6287
   1416.98804       0.4134       0.4947    1416.98804       0.4134       0.4950
   1416.97278       0.5111       0.6001    1416.97278       0.5111       0.6005
   1416.95752       0.5866       0.5742    1416.95752       0.5866       0.5746
   1416.94226       0.5561       0.6267    1416.94226       0.5562       0.6271
   1416.92700       0.4841       0.4355    1416.92700       0.4841       0.4358
   1416.91174       0.6075       0.5748    1416.91174       0.6075       0.5752
   1416.89648       0.5724       0.5171    1416.89648       0.5724       0.5174
   1416.88123       0.5703       0.4863    1416.88123       0.5703       0.4866
   1416.86597       0.4594       0.5258    1416.86597       0.4595       0.5261
   1416.85071       0.5523       0.4437    1416.85071       0.5523       0.4440
   1416.83545       0.6380       0.5984    1416.83545       0.6381       0.5988
   1416.82019       0.5680       0.4931    1416.82019       0.5680       0.4934
   1416.80493       0.5157       0.5527    1416.80493       0.5157       0.5530
   1416.78967       0.4825       0.4784    1416.78967       0.4825       0.4787
   1416.77441       0.5670       0.4817    1416.77441       0.5670       0.4820
   1416.75916       0.5740       0.5207    1416.75916       0.5740       0.5211
   1416.74390       0.4659       0.6310    1416.74390       0.4660       0.6314
   1416.72864       0.5048       0.5916    1416.72864       0.5049       0.5920
   1416.71338       0.5849       0.6218    1416.71338       0.5850       0.6222
   1416.69812       0.4775       0.5434    1416.69812       0.4776       0.5438
   1416.68286       0.6076       0.5586    1416.68286       0.6077       0.5590
   1416.66760       0.5238       0.5692    1416.66760       0.5238       0.5696
   1416.65234       0.5993       0.5030    1416.65234       0.5993       0.5033
   1416.63708       0.5495       0.5383    1416.63708       0.5495       0.5387
   1416.62183       0.6304       0.4872    1416.62183       0.6304       0.4875
   1416.60657       0.4355       0.5537    1416.60657       0.4356       0.5540
   1416.59131       0.4381       0.5004    1416.59131       0.4381       0.5007
   1416.57605       0.5456       0.5834    1416.57605       0.5456       0.5837
   1416.56079       0.5204       0.5812    1416.56079       0.5204       0.5816
   1416.54553       0.4764       0.6718    1416.54553       0.4764       0.6722
   1416.53027       0.6283       0.4282    1416.53027       0.6283       0.4285
   1416.51501       0.5515       0.5304    1416.51501       0.5515       0.5308
   1416.49976       0.6665       0.5016    1416.49976       0.6665       0.5020
   1416.48450       0.6406       0.5027    1416.48450       0.6406       0.5030
   1416.46924       0.5796       0.5185    1416.46924       0.5796       0.5188
   1416.45398       0.6924       0.6120    1416.45398       0.6924       0.6124
   1416.43872       0.5961       0.5695    1416.43872       0.5961       0.5699
   1416.42346       0.5105       0.5862    1416.42346       0.5105       0.5866
   1416.40820       0.6597       0.5662    1416.40820       0.6598       0.5665
   1416.39294       0.5712       0.6069    1416.39294       0.5712       0.6073
   1416.37769       0.6010       0.4844    1416.37769       0.6010       0.4847
   1416.36243       0.5875       0.5106    1416.36243       0.5876       0.5110
   1416.34717       0.6114       0.5729    1416.34717       0.6114       0.5733
   1416.33191       0.5790       0.5152    1416.33191       0.5791       0.5155
   1416.31665       0.6057       0.5265    1416.31665       0.6057       0.5268
   1416.30139       0.5322       0.5850    1416.30139       0.5322       0.5853
   1416.28613       0.6204       0.6708    1416.28613       0.6204       0.6712
   1416.27087       0.6216       0.4654    1416.27087       0.6216       0.4656
   1416.25562       0.6249       0.5687    1416.25562       0.6249       0.5691
   1416.24036       0.6176       0.5742    1416.24036       0.6176       0.5746
   1416.22510       0.6212       0.5240    1416.22510       0.6212       0.5243
   1416.20984       0.6783       0.5467    1416.20984       0.6783       0.5470
   1416.19458       0.7042       0.5092    1416.19458       0.7042       0.5095
   1416.17932       0.6564       0.5311    1416.17932       0.6564       0.5315
   1416.16406       0.6534       0.5333    1416.16406       0.6535       0.5337
   1416.14880       0.6734       0.6658    1416.14880       0.6734       0.6662
   1416.13354       0.6306       0.5784    1416.13354       0.6306       0.5787
   1416.11829       0.6275       0.5742    1416.11829       0.6275       0.5746
   1416.10303       0.5770       0.5887    1416.10303       0.5770       0.5891
   1416.08777       0.5740       0.5607    1416.08777       0.5740       0.5611
   1416.07251       0.6166       0.5549    1416.07251       0.6166       0.5553
   1416.05725       0.5440       0.5985    1416.05725       0.5440       0.5988
   1416.04199       0.6299       0.5494    1416.04199       0.6299       0.5498
   1416.02673       0.5664       0.4920    1416.02673       0.5664       0.4923
   1416.01147       0.5994       0.4718    1416.01147       0.5994       0.4721
   1415.99622       0.6056       0.5924    1415.99622       0.6056       0.5928
