#     FILENAME=Skynet_58945_M31_35kpc_radius_44913_54516.A.onoff.cal.txt
#     BASENAME=Skynet_58945_M31_35kpc_radius_44913_54516
#      CONTROL=SKYNET
#     PROJCODE=Skynet_58945_M31_35kpc_radius_44913
#     DATAROOT=/raid/scratch/cyborg/SkynetData
#      DATADIR=/raid/scratch/cyborg
#     DATADIR2=/raid/scratch/cyborg/SkynetData/Skynet_58945_M31_35kpc_radius_4
#     SCANNAME=2020_03_09_19
#     SRC_NAME=M31_35kpc_radius
#     OBSERVER=unioncollege_21317
#     DATE_OBS=2020-04-06T15:48:27.340
#        OBSID=44913
#      SCANNUM=54516
#          MJD=58945.6586498
#          UTC=56907
#     SCANTYPE=onoff
#     DATAMODE=HIRES
#     RECEIVER=Rx1_2
#      OBSFREQ=1395.0000
# Actual_FREQ1=1423.0000,
# Actual_FREQ2=1423.0000
#    LO1Tuning=6873.0000
#     RFFILTER=1355_1435
#        OBSBW=-15.6250
#     EFFBANDW=15.6250
#        NCHAN=1024
#    STARTCHAN=51
#     STOPCHAN=972
#         TINT=0.3000
#         TBIN=0.00013107
#       ACCLEN=2048 
#     DURATION=173.10
#     EXPOSURE=125.38
#        FOCUS=36.895
#       RA,DEC=00:34:14.54, 39:17:38.96
#      RA(deg)=7.19203
#     DEC(deg)=39.29419
#   WIDTH(deg)=2.0222x0.0035
#    AZIM(deg)=80.1356
#    ELEV(deg)=78.6755
#     COORDREF=RA_DEC_
#         HREF=8.4802
#         VREF=39.2942
#      RADESYS=FK5
#       OFFSYS=RADEC
#      EQUINOX=2000.00
#     IFATTENS=21.00, 5.00
#   BALANCELEV=1.200 
#   POWER_XLYR=[0.67, 1.33] 
#       VELDEF=RADI-OBS 
#     VELOCITY=0.000 
#         NPOL=2 
#      POLMODE=Linear 
#      POLTYPE=XXYY 
#      WARNING=None 
#     NOISECAL=HI 
#       PRECAL=2 
#      POSTCAL=2 
#     CRYOTEMP=15 
#      BOXTEMP=32 
#         TSYS=XX1:38.60, YY1:38.88
#         TSYS=XX2:38.62, YY2:38.89
#         TCAL=XX1:9.18, YY1:10.14
#         TCAL=XX2:9.18, YY2:10.14
# Calibrated spectra: Tsys*(ON-OFF)/OFF 
#                
#                
#Freq1(MHz)         XX1          YY1   Freq2(MHz)       XX2         YY2 
   1430.03430      -0.3763      -0.1119    1430.03430      -0.3765      -0.1119
   1430.01904      -0.2747      -0.0695    1430.01904      -0.2749      -0.0695
   1430.00378      -0.2610      -0.1102    1430.00378      -0.2611      -0.1103
   1429.98853      -0.2833      -0.1769    1429.98853      -0.2835      -0.1770
   1429.97327      -0.3156      -0.0783    1429.97327      -0.3158      -0.0783
   1429.95801      -0.1956      -0.1061    1429.95801      -0.1957      -0.1061
   1429.94275      -0.2008      -0.1194    1429.94275      -0.2009      -0.1195
   1429.92749      -0.2435      -0.1343    1429.92749      -0.2436      -0.1343
   1429.91223      -0.3157      -0.0935    1429.91223      -0.3158      -0.0936
   1429.89697      -0.3133      -0.1586    1429.89697      -0.3134      -0.1587
   1429.88171      -0.2625      -0.0432    1429.88171      -0.2627      -0.0433
   1429.86646      -0.3753      -0.0588    1429.86646      -0.3755      -0.0588
   1429.85120      -0.3072      -0.0856    1429.85120      -0.3074      -0.0857
   1429.83594      -0.2691      -0.1047    1429.83594      -0.2692      -0.1048
   1429.82068      -0.3645      -0.0722    1429.82068      -0.3647      -0.0723
   1429.80542      -0.2919      -0.0513    1429.80542      -0.2921      -0.0514
   1429.79016      -0.2833      -0.1439    1429.79016      -0.2834      -0.1439
   1429.77490      -0.2645      -0.0680    1429.77490      -0.2646      -0.0680
   1429.75964      -0.2501      -0.1042    1429.75964      -0.2502      -0.1043
   1429.74438      -0.2890      -0.0325    1429.74438      -0.2891      -0.0325
   1429.72913      -0.3189      -0.1703    1429.72913      -0.3191      -0.1704
   1429.71387      -0.2634      -0.0309    1429.71387      -0.2635      -0.0309
   1429.69861      -0.2725       0.0031    1429.69861      -0.2726       0.0031
   1429.68335      -0.2934      -0.0998    1429.68335      -0.2935      -0.0998
   1429.66809      -0.3758      -0.1770    1429.66809      -0.3760      -0.1770
   1429.65283      -0.2478      -0.2070    1429.65283      -0.2479      -0.2071
   1429.63757      -0.2731      -0.2224    1429.63757      -0.2733      -0.2225
   1429.62231      -0.2255      -0.0351    1429.62231      -0.2256      -0.0351
   1429.60706      -0.2332      -0.1413    1429.60706      -0.2333      -0.1413
   1429.59180      -0.2638      -0.1360    1429.59180      -0.2639      -0.1361
   1429.57654      -0.2907      -0.0669    1429.57654      -0.2908      -0.0670
   1429.56128      -0.1797      -0.1069    1429.56128      -0.1797      -0.1069
   1429.54602      -0.2314      -0.0531    1429.54602      -0.2315      -0.0531
   1429.53076      -0.2141      -0.0728    1429.53076      -0.2142      -0.0729
   1429.51550      -0.1651      -0.0143    1429.51550      -0.1652      -0.0143
   1429.50024      -0.2278      -0.0303    1429.50024      -0.2279      -0.0303
   1429.48499      -0.2690      -0.1741    1429.48499      -0.2692      -0.1741
   1429.46973      -0.3735      -0.0924    1429.46973      -0.3736      -0.0925
   1429.45447      -0.3271      -0.1190    1429.45447      -0.3273      -0.1191
   1429.43921      -0.3080      -0.0789    1429.43921      -0.3082      -0.0789
   1429.42395      -0.2306      -0.1583    1429.42395      -0.2307      -0.1584
   1429.40869      -0.2237      -0.1017    1429.40869      -0.2238      -0.1017
   1429.39343      -0.1800      -0.1454    1429.39343      -0.1801      -0.1455
   1429.37817      -0.2838      -0.0970    1429.37817      -0.2840      -0.0970
   1429.36292      -0.3573      -0.1189    1429.36292      -0.3574      -0.1189
   1429.34766      -0.2437      -0.0813    1429.34766      -0.2438      -0.0813
   1429.33240      -0.2494      -0.1558    1429.33240      -0.2495      -0.1559
   1429.31714      -0.2101      -0.0540    1429.31714      -0.2102      -0.0540
   1429.30188      -0.1882      -0.2238    1429.30188      -0.1883      -0.2238
   1429.28662      -0.2073      -0.1390    1429.28662      -0.2074      -0.1391
   1429.27136      -0.2686      -0.1278    1429.27136      -0.2688      -0.1278
   1429.25610      -0.2338      -0.0937    1429.25610      -0.2339      -0.0937
   1429.24084      -0.2174      -0.1299    1429.24084      -0.2175      -0.1299
   1429.22559      -0.1204      -0.1669    1429.22559      -0.1204      -0.1670
   1429.21033      -0.2275      -0.1991    1429.21033      -0.2276      -0.1992
   1429.19507      -0.2787      -0.0958    1429.19507      -0.2788      -0.0958
   1429.17981      -0.2518      -0.1047    1429.17981      -0.2519      -0.1048
   1429.16455      -0.0353      -0.0794    1429.16455      -0.0353      -0.0794
   1429.14929      -0.1240      -0.1028    1429.14929      -0.1241      -0.1028
   1429.13403      -0.1079      -0.1523    1429.13403      -0.1079      -0.1524
   1429.11877      -0.1690      -0.0988    1429.11877      -0.1690      -0.0988
   1429.10352      -0.2737      -0.1136    1429.10352      -0.2738      -0.1137
   1429.08826      -0.1387      -0.1541    1429.08826      -0.1388      -0.1541
   1429.07300      -0.1867      -0.1006    1429.07300      -0.1868      -0.1006
   1429.05774      -0.2099      -0.0997    1429.05774      -0.2100      -0.0998
   1429.04248      -0.2291      -0.1293    1429.04248      -0.2292      -0.1294
   1429.02722      -0.1660      -0.0906    1429.02722      -0.1661      -0.0907
   1429.01196      -0.1220      -0.1414    1429.01196      -0.1221      -0.1414
   1428.99670      -0.2477      -0.0982    1428.99670      -0.2478      -0.0982
   1428.98145      -0.1830      -0.1194    1428.98145      -0.1831      -0.1194
   1428.96619      -0.1363      -0.0736    1428.96619      -0.1364      -0.0736
   1428.95093      -0.1088      -0.0826    1428.95093      -0.1088      -0.0826
   1428.93567      -0.1662      -0.0475    1428.93567      -0.1662      -0.0475
   1428.92041      -0.1840      -0.1300    1428.92041      -0.1841      -0.1301
   1428.90515      -0.0829      -0.1243    1428.90515      -0.0829      -0.1244
   1428.88989      -0.1442      -0.1282    1428.88989      -0.1442      -0.1282
   1428.87463      -0.1823      -0.1281    1428.87463      -0.1824      -0.1281
   1428.85938      -0.0709      -0.1596    1428.85938      -0.0709      -0.1597
   1428.84412      -0.2195      -0.1435    1428.84412      -0.2196      -0.1436
   1428.82886      -0.2313      -0.1103    1428.82886      -0.2314      -0.1104
   1428.81360      -0.0924      -0.1351    1428.81360      -0.0924      -0.1352
   1428.79834      -0.2596      -0.1204    1428.79834      -0.2598      -0.1205
   1428.78308      -0.2062      -0.0528    1428.78308      -0.2063      -0.0529
   1428.76782      -0.1635      -0.1891    1428.76782      -0.1635      -0.1892
   1428.75256      -0.1620      -0.1577    1428.75256      -0.1620      -0.1578
   1428.73730      -0.2330      -0.1408    1428.73730      -0.2331      -0.1408
   1428.72205      -0.2197      -0.0970    1428.72205      -0.2198      -0.0970
   1428.70679      -0.1927       0.0272    1428.70679      -0.1928       0.0272
   1428.69153      -0.0598      -0.1023    1428.69153      -0.0598      -0.1023
   1428.67627      -0.0339      -0.1232    1428.67627      -0.0339      -0.1232
   1428.66101      -0.1133      -0.1117    1428.66101      -0.1134      -0.1117
   1428.64575      -0.1379      -0.0115    1428.64575      -0.1380      -0.0115
   1428.63049      -0.0670      -0.0785    1428.63049      -0.0670      -0.0785
   1428.61523      -0.1378      -0.0554    1428.61523      -0.1378      -0.0554
   1428.59998      -0.0449      -0.0663    1428.59998      -0.0449      -0.0663
   1428.58472      -0.1400      -0.0889    1428.58472      -0.1400      -0.0889
   1428.56946      -0.0604      -0.0601    1428.56946      -0.0604      -0.0601
   1428.55420      -0.1752       0.0309    1428.55420      -0.1752       0.0309
   1428.53894      -0.0687      -0.0528    1428.53894      -0.0688      -0.0529
   1428.52368      -0.2133      -0.1708    1428.52368      -0.2134      -0.1709
   1428.50842      -0.0520       0.0051    1428.50842      -0.0520       0.0051
   1428.49316      -0.1129      -0.1132    1428.49316      -0.1129      -0.1132
   1428.47791      -0.0413      -0.1050    1428.47791      -0.0413      -0.1051
   1428.46265      -0.0130      -0.1303    1428.46265      -0.0130      -0.1303
   1428.44739      -0.1223      -0.0799    1428.44739      -0.1224      -0.0799
   1428.43213      -0.1058      -0.0967    1428.43213      -0.1059      -0.0967
   1428.41687      -0.1049      -0.0195    1428.41687      -0.1050      -0.0196
   1428.40161      -0.0680      -0.0588    1428.40161      -0.0681      -0.0588
   1428.38635      -0.1101      -0.0106    1428.38635      -0.1102      -0.0106
   1428.37109      -0.0460      -0.0534    1428.37109      -0.0460      -0.0534
   1428.35583      -0.0507      -0.0566    1428.35583      -0.0507      -0.0566
   1428.34058      -0.0300      -0.0000    1428.34058      -0.0300      -0.0000
   1428.32532      -0.0889      -0.0417    1428.32532      -0.0890      -0.0418
   1428.31006      -0.0051      -0.0263    1428.31006      -0.0051      -0.0263
   1428.29480      -0.0226       0.0132    1428.29480      -0.0227       0.0132
   1428.27954      -0.0321      -0.0498    1428.27954      -0.0321      -0.0498
   1428.26428      -0.1249      -0.0396    1428.26428      -0.1250      -0.0396
   1428.24902      -0.0682      -0.0398    1428.24902      -0.0682      -0.0398
   1428.23376      -0.1154       0.0360    1428.23376      -0.1155       0.0360
   1428.21851      -0.1246       0.0225    1428.21851      -0.1246       0.0225
   1428.20325      -0.0462      -0.0670    1428.20325      -0.0462      -0.0670
   1428.18799      -0.0222      -0.1093    1428.18799      -0.0222      -0.1093
   1428.17273       0.0164       0.0126    1428.17273       0.0164       0.0126
   1428.15747       0.0068      -0.0114    1428.15747       0.0068      -0.0114
   1428.14221      -0.0962      -0.0658    1428.14221      -0.0963      -0.0659
   1428.12695      -0.1618      -0.0604    1428.12695      -0.1619      -0.0605
   1428.11169      -0.1141      -0.0117    1428.11169      -0.1142      -0.0117
   1428.09644      -0.0951      -0.0232    1428.09644      -0.0951      -0.0232
   1428.08118      -0.0922      -0.0609    1428.08118      -0.0923      -0.0610
   1428.06592      -0.0334      -0.0541    1428.06592      -0.0334      -0.0541
   1428.05066       0.0083      -0.0519    1428.05066       0.0083      -0.0519
   1428.03540       0.0471      -0.0327    1428.03540       0.0471      -0.0327
   1428.02014      -0.0045       0.0169    1428.02014      -0.0045       0.0169
   1428.00488      -0.0027      -0.0355    1428.00488      -0.0027      -0.0355
   1427.98962      -0.0854      -0.0827    1427.98962      -0.0855      -0.0828
   1427.97437       0.0019      -0.0338    1427.97437       0.0019      -0.0338
   1427.95911       0.0687      -0.0432    1427.95911       0.0687      -0.0432
   1427.94385      -0.0509      -0.0445    1427.94385      -0.0509      -0.0445
   1427.92859      -0.0073       0.0342    1427.92859      -0.0073       0.0342
   1427.91333      -0.0033       0.0169    1427.91333      -0.0033       0.0169
   1427.89807      -0.0128      -0.0685    1427.89807      -0.0128      -0.0685
   1427.88281       0.0401      -0.0503    1427.88281       0.0401      -0.0503
   1427.86755      -0.0581      -0.1066    1427.86755      -0.0581      -0.1067
   1427.85229       0.0693       0.0223    1427.85229       0.0693       0.0223
   1427.83704       0.0881       0.0455    1427.83704       0.0881       0.0455
   1427.82178       0.1146      -0.0365    1427.82178       0.1147      -0.0366
   1427.80652       0.0397      -0.0529    1427.80652       0.0397      -0.0530
   1427.79126       0.0113       0.0346    1427.79126       0.0113       0.0346
   1427.77600       0.0159       0.1086    1427.77600       0.0160       0.1086
   1427.76074       0.0189       0.0019    1427.76074       0.0189       0.0019
   1427.74548       0.1252       0.0138    1427.74548       0.1252       0.0138
   1427.73022       0.1004       0.0063    1427.73022       0.1005       0.0063
   1427.71497       0.0646      -0.0111    1427.71497       0.0647      -0.0111
   1427.69971       0.0471       0.0355    1427.69971       0.0471       0.0356
   1427.68445       0.0877      -0.0048    1427.68445       0.0878      -0.0048
   1427.66919       0.0865       0.0196    1427.66919       0.0866       0.0196
   1427.65393      -0.0223       0.1219    1427.65393      -0.0223       0.1219
   1427.63867       0.0503       0.0640    1427.63867       0.0504       0.0640
   1427.62341       0.1330       0.0074    1427.62341       0.1331       0.0075
   1427.60815       0.1200       0.0209    1427.60815       0.1201       0.0209
   1427.59290       0.1286       0.0622    1427.59290       0.1286       0.0622
   1427.57764       0.0663       0.0585    1427.57764       0.0664       0.0585
   1427.56238       0.0654       0.0339    1427.56238       0.0654       0.0339
   1427.54712       0.0303       0.0589    1427.54712       0.0303       0.0590
   1427.53186       0.0828       0.0414    1427.53186       0.0828       0.0414
   1427.51660       0.1248       0.1469    1427.51660       0.1248       0.1469
   1427.50134       0.1099       0.0896    1427.50134       0.1099       0.0897
   1427.48608       0.1045       0.0427    1427.48608       0.1045       0.0427
   1427.47083       0.0814       0.0076    1427.47083       0.0814       0.0076
   1427.45557       0.0657       0.1017    1427.45557       0.0658       0.1018
   1427.44031       0.0950       0.0528    1427.44031       0.0951       0.0528
   1427.42505       0.1788       0.0098    1427.42505       0.1789       0.0098
   1427.40979       0.2210       0.0297    1427.40979       0.2211       0.0297
   1427.39453       0.0981      -0.0166    1427.39453       0.0982      -0.0166
   1427.37927       0.1366       0.1661    1427.37927       0.1367       0.1661
   1427.36401       0.1574       0.0864    1427.36401       0.1575       0.0865
   1427.34875       0.1276       0.1155    1427.34875       0.1277       0.1155
   1427.33350       0.1387       0.0994    1427.33350       0.1388       0.0994
   1427.31824       0.1553       0.0819    1427.31824       0.1554       0.0819
   1427.30298       0.1204       0.0562    1427.30298       0.1204       0.0562
   1427.28772       0.2125       0.0932    1427.28772       0.2126       0.0932
   1427.27246       0.1795       0.0790    1427.27246       0.1795       0.0790
   1427.25720       0.1921       0.0276    1427.25720       0.1922       0.0276
   1427.24194       0.1961       0.1004    1427.24194       0.1962       0.1005
   1427.22668       0.2112       0.1542    1427.22668       0.2113       0.1543
   1427.21143       0.1375       0.0921    1427.21143       0.1376       0.0921
   1427.19617       0.2303       0.1710    1427.19617       0.2304       0.1710
   1427.18091       0.1984       0.1620    1427.18091       0.1985       0.1620
   1427.16565       0.1984       0.0751    1427.16565       0.1985       0.0752
   1427.15039       0.1379       0.1764    1427.15039       0.1380       0.1765
   1427.13513       0.2478       0.0705    1427.13513       0.2479       0.0705
   1427.11987       0.1762       0.2489    1427.11987       0.1763       0.2490
   1427.10461       0.1871       0.1829    1427.10461       0.1872       0.1829
   1427.08936       0.2713       0.1480    1427.08936       0.2714       0.1480
   1427.07410       0.2373       0.1557    1427.07410       0.2374       0.1558
   1427.05884       0.2542       0.2249    1427.05884       0.2544       0.2250
   1427.04358       0.2430       0.0813    1427.04358       0.2431       0.0813
   1427.02832       0.1484       0.1914    1427.02832       0.1485       0.1914
   1427.01306       0.2628       0.2043    1427.01306       0.2630       0.2043
   1426.99780       0.2242       0.1651    1426.99780       0.2243       0.1651
   1426.98254       0.1766       0.0621    1426.98254       0.1767       0.0621
   1426.96729       0.1529       0.0842    1426.96729       0.1530       0.0842
   1426.95203       0.1538       0.1159    1426.95203       0.1538       0.1160
   1426.93677       0.0815       0.1796    1426.93677       0.0816       0.1796
   1426.92151       0.1708       0.0672    1426.92151       0.1709       0.0672
   1426.90625       0.2439       0.1834    1426.90625       0.2440       0.1835
   1426.89099       0.2851       0.2669    1426.89099       0.2853       0.2669
   1426.87573       0.2339       0.2714    1426.87573       0.2340       0.2715
   1426.86047       0.2518       0.1418    1426.86047       0.2519       0.1418
   1426.84521       0.2912       0.0610    1426.84521       0.2913       0.0610
   1426.82996       0.2831       0.1514    1426.82996       0.2832       0.1514
   1426.81470       0.2574       0.1636    1426.81470       0.2575       0.1637
   1426.79944       0.1949       0.1181    1426.79944       0.1950       0.1182
   1426.78418       0.1757       0.1419    1426.78418       0.1757       0.1420
   1426.76892       0.2515       0.2540    1426.76892       0.2516       0.2540
   1426.75366       0.2655       0.1759    1426.75366       0.2656       0.1760
   1426.73840       0.1431       0.1746    1426.73840       0.1431       0.1747
   1426.72314       0.2283       0.1739    1426.72314       0.2284       0.1740
   1426.70789       0.1603       0.1519    1426.70789       0.1603       0.1519
   1426.69263       0.2036       0.1623    1426.69263       0.2037       0.1623
   1426.67737       0.2176       0.1960    1426.67737       0.2177       0.1960
   1426.66211       0.6180       0.2434    1426.66211       0.6183       0.2435
   1426.64685       0.1079       0.1533    1426.64685       0.1079       0.1534
   1426.63159       0.2544       0.1365    1426.63159       0.2545       0.1366
   1426.61633       0.4241       0.1740    1426.61633       0.4243       0.1740
   1426.60107       0.6485       0.1950    1426.60107       0.6487       0.1951
   1426.58582       0.2294       0.1892    1426.58582       0.2295       0.1892
   1426.57056       0.2442       0.2345    1426.57056       0.2443       0.2346
   1426.55530       0.2587       0.1986    1426.55530       0.2588       0.1986
   1426.54004       0.2640       0.2533    1426.54004       0.2641       0.2534
   1426.52478       0.3197       0.2686    1426.52478       0.3198       0.2687
   1426.50952       0.2257       0.2127    1426.50952       0.2258       0.2128
   1426.49426       0.2937       0.2097    1426.49426       0.2939       0.2097
   1426.47900       0.3056       0.2196    1426.47900       0.3057       0.2197
   1426.46375       0.2484       0.2264    1426.46375       0.2485       0.2265
   1426.44849       0.2472       0.2284    1426.44849       0.2473       0.2285
   1426.43323       0.3091       0.2358    1426.43323       0.3092       0.2359
   1426.41797       0.2868       0.1850    1426.41797       0.2869       0.1850
   1426.40271       0.2933       0.1475    1426.40271       0.2934       0.1476
   1426.38745       0.2794       0.2194    1426.38745       0.2795       0.2195
   1426.37219       0.2684       0.1695    1426.37219       0.2685       0.1696
   1426.35693       0.2325       0.2515    1426.35693       0.2326       0.2516
   1426.34167       0.2465       0.2019    1426.34167       0.2467       0.2020
   1426.32642       0.2507       0.2081    1426.32642       0.2508       0.2082
   1426.31116       0.2916       0.2103    1426.31116       0.2918       0.2104
   1426.29590       0.2289       0.2341    1426.29590       0.2290       0.2342
   1426.28064       0.1679       0.1852    1426.28064       0.1680       0.1853
   1426.26538       0.3549       0.2003    1426.26538       0.3551       0.2003
   1426.25012       0.2686       0.2577    1426.25012       0.2687       0.2578
   1426.23486       0.2209       0.2497    1426.23486       0.2210       0.2498
   1426.21960       0.2958       0.2641    1426.21960       0.2960       0.2642
   1426.20435       0.2525       0.2928    1426.20435       0.2526       0.2929
   1426.18909       0.2478       0.3398    1426.18909       0.2479       0.3399
   1426.17383       0.2701       0.2920    1426.17383       0.2702       0.2921
   1426.15857       0.2362       0.2289    1426.15857       0.2363       0.2289
   1426.14331       0.2982       0.2189    1426.14331       0.2984       0.2190
   1426.12805       0.3056       0.1677    1426.12805       0.3057       0.1678
   1426.11279       0.2875       0.2654    1426.11279       0.2876       0.2655
   1426.09753       0.3127       0.1966    1426.09753       0.3128       0.1967
   1426.08228       0.2994       0.2308    1426.08228       0.2995       0.2309
   1426.06702       0.3149       0.2802    1426.06702       0.3150       0.2803
   1426.05176       0.2009       0.2016    1426.05176       0.2010       0.2017
   1426.03650       0.2288       0.2458    1426.03650       0.2289       0.2458
   1426.02124       0.2679       0.2174    1426.02124       0.2680       0.2175
   1426.00598       0.2398       0.2474    1426.00598       0.2399       0.2475
   1425.99072       0.2552       0.2304    1425.99072       0.2553       0.2305
   1425.97546       0.2798       0.3032    1425.97546       0.2799       0.3033
   1425.96021       0.2691       0.1940    1425.96021       0.2693       0.1941
   1425.94495       0.3080       0.1715    1425.94495       0.3082       0.1716
   1425.92969       0.1700       0.2496    1425.92969       0.1701       0.2497
   1425.91443       0.1967       0.3148    1425.91443       0.1968       0.3149
   1425.89917       0.1889       0.2827    1425.89917       0.1890       0.2828
   1425.88391       0.2810       0.3659    1425.88391       0.2811       0.3661
   1425.86865       0.2798       0.2709    1425.86865       0.2799       0.2710
   1425.85339       0.2779       0.3060    1425.85339       0.2781       0.3061
   1425.83813       0.2684       0.1968    1425.83813       0.2686       0.1969
   1425.82288       0.2894       0.2580    1425.82288       0.2895       0.2581
   1425.80762       0.2736       0.2876    1425.80762       0.2737       0.2877
   1425.79236       0.3190       0.3107    1425.79236       0.3191       0.3108
   1425.77710       0.2465       0.3307    1425.77710       0.2466       0.3308
   1425.76184       0.2748       0.2177    1425.76184       0.2749       0.2178
   1425.74658       0.2866       0.2399    1425.74658       0.2868       0.2400
   1425.73132       0.3056       0.2917    1425.73132       0.3057       0.2918
   1425.71606       0.2937       0.3242    1425.71606       0.2938       0.3243
   1425.70081       0.2995       0.2558    1425.70081       0.2996       0.2559
   1425.68555       0.3194       0.2661    1425.68555       0.3195       0.2662
   1425.67029       0.3187       0.2618    1425.67029       0.3188       0.2619
   1425.65503       0.3563       0.2165    1425.65503       0.3565       0.2165
   1425.63977       0.2948       0.3486    1425.63977       0.2949       0.3487
   1425.62451       0.2980       0.2656    1425.62451       0.2982       0.2656
   1425.60925       0.3306       0.3539    1425.60925       0.3307       0.3540
   1425.59399       0.2875       0.2873    1425.59399       0.2876       0.2874
   1425.57874       0.2055       0.1887    1425.57874       0.2056       0.1888
   1425.56348       0.3057       0.2695    1425.56348       0.3058       0.2696
   1425.54822       0.2348       0.2739    1425.54822       0.2349       0.2740
   1425.53296       0.2727       0.3537    1425.53296       0.2728       0.3538
   1425.51770       0.2318       0.2729    1425.51770       0.2319       0.2730
   1425.50244       0.2467       0.2537    1425.50244       0.2468       0.2537
   1425.48718       0.2690       0.1817    1425.48718       0.2692       0.1817
   1425.47192       0.2566       0.3337    1425.47192       0.2568       0.3338
   1425.45667       0.2665       0.2780    1425.45667       0.2667       0.2780
   1425.44141       0.2515       0.3468    1425.44141       0.2516       0.3469
   1425.42615       0.3321       0.2958    1425.42615       0.3322       0.2959
   1425.41089       0.3530       0.3036    1425.41089       0.3532       0.3037
   1425.39563       0.2245       0.2798    1425.39563       0.2246       0.2799
   1425.38037       0.2847       0.2748    1425.38037       0.2848       0.2749
   1425.36511       0.2806       0.2550    1425.36511       0.2808       0.2551
   1425.34985       0.3602       0.4251    1425.34985       0.3603       0.4253
   1425.33459       0.2730       0.2807    1425.33459       0.2731       0.2808
   1425.31934       0.2264       0.3005    1425.31934       0.2265       0.3006
   1425.30408       0.2883       0.2667    1425.30408       0.2884       0.2668
   1425.28882       0.3018       0.3587    1425.28882       0.3019       0.3588
   1425.27356       0.2987       0.3194    1425.27356       0.2988       0.3195
   1425.25830       0.3124       0.3396    1425.25830       0.3125       0.3397
   1425.24304       0.2701       0.3593    1425.24304       0.2702       0.3594
   1425.22778       0.3611       0.4160    1425.22778       0.3612       0.4162
   1425.21252       0.2703       0.3196    1425.21252       0.2704       0.3198
   1425.19727       0.3175       0.2703    1425.19727       0.3176       0.2704
   1425.18201       0.2627       0.2997    1425.18201       0.2629       0.2998
   1425.16675       0.1969       0.2527    1425.16675       0.1970       0.2528
   1425.15149       0.2192       0.2097    1425.15149       0.2193       0.2098
   1425.13623       0.3060       0.2286    1425.13623       0.3062       0.2286
   1425.12097       0.2265       0.3178    1425.12097       0.2266       0.3179
   1425.10571       0.3282       0.2539    1425.10571       0.3283       0.2540
   1425.09045       0.2500       0.3018    1425.09045       0.2501       0.3019
   1425.07520       0.1913       0.3597    1425.07520       0.1913       0.3598
   1425.05994       0.3095       0.3252    1425.05994       0.3096       0.3253
   1425.04468       0.2763       0.2722    1425.04468       0.2765       0.2723
   1425.02942       0.1752       0.2251    1425.02942       0.1752       0.2251
   1425.01416       0.1956       0.3336    1425.01416       0.1957       0.3337
   1424.99890       0.1598       0.2629    1424.99890       0.1598       0.2629
   1424.98364       0.2764       0.3771    1424.98364       0.2765       0.3772
   1424.96838       0.2282       0.3045    1424.96838       0.2283       0.3046
   1424.95312       0.2477       0.3446    1424.95312       0.2478       0.3447
   1424.93787       0.2952       0.2501    1424.93787       0.2953       0.2501
   1424.92261       0.2674       0.3244    1424.92261       0.2675       0.3245
   1424.90735       0.2313       0.3428    1424.90735       0.2314       0.3429
   1424.89209       0.2267       0.3271    1424.89209       0.2268       0.3272
   1424.87683       0.2302       0.3324    1424.87683       0.2304       0.3325
   1424.86157       0.1983       0.2590    1424.86157       0.1984       0.2591
   1424.84631       0.2222       0.2742    1424.84631       0.2223       0.2743
   1424.83105       0.2608       0.3278    1424.83105       0.2609       0.3279
   1424.81580       0.2169       0.3610    1424.81580       0.2170       0.3612
   1424.80054       0.3093       0.2759    1424.80054       0.3094       0.2760
   1424.78528       0.2526       0.2845    1424.78528       0.2527       0.2846
   1424.77002       0.2655       0.2577    1424.77002       0.2657       0.2578
   1424.75476       0.2695       0.2855    1424.75476       0.2696       0.2856
   1424.73950       0.2202       0.2218    1424.73950       0.2203       0.2219
   1424.72424       0.2223       0.3565    1424.72424       0.2224       0.3566
   1424.70898       0.2189       0.3224    1424.70898       0.2190       0.3225
   1424.69373       0.2446       0.2590    1424.69373       0.2447       0.2591
   1424.67847       0.2212       0.2565    1424.67847       0.2213       0.2566
   1424.66321       0.1851       0.2966    1424.66321       0.1852       0.2967
   1424.64795       0.1981       0.3296    1424.64795       0.1982       0.3297
   1424.63269       0.2603       0.3049    1424.63269       0.2604       0.3050
   1424.61743       0.2249       0.3168    1424.61743       0.2250       0.3169
   1424.60217       0.2526       0.2360    1424.60217       0.2527       0.2361
   1424.58691       0.1925       0.2587    1424.58691       0.1926       0.2588
   1424.57166       0.2001       0.2231    1424.57166       0.2002       0.2232
   1424.55640       0.1578       0.3521    1424.55640       0.1579       0.3522
   1424.54114       0.1494       0.3302    1424.54114       0.1494       0.3303
   1424.52588       0.2415       0.3421    1424.52588       0.2416       0.3422
   1424.51062       0.2050       0.3521    1424.51062       0.2051       0.3522
   1424.49536       0.1974       0.2154    1424.49536       0.1975       0.2155
   1424.48010       0.2024       0.2035    1424.48010       0.2025       0.2036
   1424.46484       0.1838       0.2289    1424.46484       0.1839       0.2289
   1424.44958       0.3140       0.1969    1424.44958       0.3142       0.1970
   1424.43433       0.2528       0.2710    1424.43433       0.2529       0.2711
   1424.41907       0.2121       0.3068    1424.41907       0.2122       0.3069
   1424.40381       0.1851       0.3076    1424.40381       0.1852       0.3077
   1424.38855       0.1934       0.2676    1424.38855       0.1935       0.2677
   1424.37329       0.2083       0.3325    1424.37329       0.2084       0.3326
   1424.35803       0.2440       0.2666    1424.35803       0.2441       0.2667
   1424.34277       0.2904       0.2819    1424.34277       0.2905       0.2820
   1424.32751       0.1820       0.2516    1424.32751       0.1820       0.2517
   1424.31226       0.1387       0.2267    1424.31226       0.1388       0.2268
   1424.29700       0.1241       0.2217    1424.29700       0.1241       0.2217
   1424.28174       0.1732       0.2892    1424.28174       0.1732       0.2893
   1424.26648       0.1486       0.2673    1424.26648       0.1487       0.2673
   1424.25122       0.1206       0.3696    1424.25122       0.1206       0.3698
   1424.23596       0.1118       0.3545    1424.23596       0.1118       0.3546
   1424.22070       0.1524       0.3102    1424.22070       0.1525       0.3103
   1424.20544       0.1414       0.2804    1424.20544       0.1414       0.2805
   1424.19019       0.1167       0.2633    1424.19019       0.1167       0.2634
   1424.17493       0.2467       0.2125    1424.17493       0.2468       0.2126
   1424.15967       0.0789       0.1632    1424.15967       0.0789       0.1633
   1424.14441       0.1441       0.2784    1424.14441       0.1442       0.2784
   1424.12915       0.1367       0.3438    1424.12915       0.1367       0.3439
   1424.11389       0.1349       0.2510    1424.11389       0.1349       0.2511
   1424.09863       0.0559       0.2310    1424.09863       0.0559       0.2311
   1424.08337       0.1119       0.2826    1424.08337       0.1120       0.2827
   1424.06812       0.1262       0.3045    1424.06812       0.1263       0.3046
   1424.05286      -0.0134       0.2927    1424.05286      -0.0134       0.2928
   1424.03760       0.1877       0.2813    1424.03760       0.1878       0.2814
   1424.02234       0.1138       0.3457    1424.02234       0.1139       0.3458
   1424.00708       0.1313       0.2920    1424.00708       0.1314       0.2921
   1423.99182       0.1474       0.3017    1423.99182       0.1475       0.3018
   1423.97656       0.0993       0.2172    1423.97656       0.0994       0.2173
   1423.96130       0.1456       0.1753    1423.96130       0.1457       0.1754
   1423.94604       0.1238       0.3075    1423.94604       0.1239       0.3076
   1423.93079       0.1036       0.2833    1423.93079       0.1037       0.2833
   1423.91553       0.1072       0.2798    1423.91553       0.1073       0.2799
   1423.90027      -0.0136       0.2846    1423.90027      -0.0137       0.2847
   1423.88501       0.0471       0.2509    1423.88501       0.0471       0.2510
   1423.86975       0.1253       0.3014    1423.86975       0.1254       0.3015
   1423.85449       0.1232       0.2829    1423.85449       0.1232       0.2830
   1423.83923       0.0944       0.2267    1423.83923       0.0944       0.2268
   1423.82397       0.0646       0.2155    1423.82397       0.0646       0.2156
   1423.80872       0.1437       0.2235    1423.80872       0.1438       0.2236
   1423.79346       0.0079       0.2050    1423.79346       0.0079       0.2050
   1423.77820       0.0086       0.2954    1423.77820       0.0086       0.2955
   1423.76294       0.0382       0.2493    1423.76294       0.0382       0.2494
   1423.74768       0.0650       0.1798    1423.74768       0.0650       0.1799
   1423.73242       0.0335       0.2289    1423.73242       0.0336       0.2290
   1423.71716       0.0373       0.2279    1423.71716       0.0374       0.2280
   1423.70190       0.0647       0.3113    1423.70190       0.0647       0.3114
   1423.68665       0.0982       0.2290    1423.68665       0.0982       0.2291
   1423.67139       0.0183       0.1940    1423.67139       0.0183       0.1941
   1423.65613       0.0806       0.2819    1423.65613       0.0807       0.2820
   1423.64087       0.0584       0.2200    1423.64087       0.0584       0.2201
   1423.62561       0.0139       0.2036    1423.62561       0.0139       0.2037
   1423.61035      -0.0234       0.2267    1423.61035      -0.0234       0.2267
   1423.59509       0.0612       0.3080    1423.59509       0.0612       0.3081
   1423.57983       0.0008       0.2202    1423.57983       0.0008       0.2203
   1423.56458       0.1033       0.2339    1423.56458       0.1034       0.2340
   1423.54932       0.1432       0.2104    1423.54932       0.1433       0.2104
   1423.53406       0.1983       0.2803    1423.53406       0.1984       0.2804
   1423.51880       0.0172       0.3086    1423.51880       0.0172       0.3087
   1423.50354       0.0911       0.2286    1423.50354       0.0911       0.2287
   1423.48828       0.0561       0.2572    1423.48828       0.0562       0.2573
   1423.47302       0.0383       0.2103    1423.47302       0.0384       0.2104
   1423.45776      -0.0466       0.2852    1423.45776      -0.0466       0.2853
   1423.44250      -0.0398       0.3085    1423.44250      -0.0398       0.3086
   1423.42725       0.0501       0.1894    1423.42725       0.0501       0.1894
   1423.41199      -0.0147       0.2321    1423.41199      -0.0147       0.2322
   1423.39673      -0.0502       0.2538    1423.39673      -0.0502       0.2539
   1423.38147       0.0575       0.2344    1423.38147       0.0575       0.2345
   1423.36621       0.0836       0.3677    1423.36621       0.0836       0.3678
   1423.35095      -0.0479       0.3042    1423.35095      -0.0479       0.3043
   1423.33569       0.0381       0.2366    1423.33569       0.0381       0.2367
   1423.32043      -0.0414       0.2547    1423.32043      -0.0414       0.2547
   1423.30518      -0.0179       0.1071    1423.30518      -0.0179       0.1071
   1423.28992       0.0414       0.1370    1423.28992       0.0415       0.1370
   1423.27466       0.0679       0.2047    1423.27466       0.0679       0.2048
   1423.25940       0.0627       0.0401    1423.25940       0.0628       0.0401
   1423.24414       0.1179       0.2042    1423.24414       0.1179       0.2043
   1423.22888      -0.0269       0.1285    1423.22888      -0.0269       0.1285
   1423.21362       0.0073       0.1824    1423.21362       0.0073       0.1825
   1423.19836      -0.0691       0.2775    1423.19836      -0.0692       0.2776
   1423.18311      -0.0348       0.1895    1423.18311      -0.0348       0.1896
   1423.16785      -0.0212       0.1759    1423.16785      -0.0212       0.1759
   1423.15259       0.0535       0.2754    1423.15259       0.0536       0.2755
   1423.13733      -0.0461       0.1841    1423.13733      -0.0461       0.1842
   1423.12207      -0.0716       0.1758    1423.12207      -0.0716       0.1759
   1423.10681      -0.0497       0.2489    1423.10681      -0.0497       0.2490
   1423.09155      -0.0297       0.2531    1423.09155      -0.0297       0.2532
   1423.07629      -0.0251       0.2220    1423.07629      -0.0251       0.2221
   1423.06104      -0.0148       0.2344    1423.06104      -0.0148       0.2345
   1423.04578       0.0720       0.2776    1423.04578       0.0720       0.2777
   1423.03052       0.0003       0.2253    1423.03052       0.0003       0.2254
   1423.01526       0.1984       0.4587    1423.01526       0.1985       0.4588
   1423.00000       0.1614       0.5414    1423.00000       0.1615       0.5415
   1422.98474       0.0772       0.6241    1422.98474       0.0772       0.6243
   1422.96948      -0.0278       0.2161    1422.96948      -0.0278       0.2162
   1422.95422       0.0456       0.2137    1422.95422       0.0457       0.2138
   1422.93896       0.0687       0.3800    1422.93896       0.0687       0.3802
   1422.92371       0.2236       0.3403    1422.92371       0.2237       0.3404
   1422.90845       0.2670       0.4595    1422.90845       0.2672       0.4597
   1422.89319       0.3116       0.4849    1422.89319       0.3118       0.4851
   1422.87793       0.3283       0.5970    1422.87793       0.3284       0.5972
   1422.86267       0.4145       0.6471    1422.86267       0.4147       0.6473
   1422.84741       0.5026       0.6967    1422.84741       0.5028       0.6969
   1422.83215       0.4560       0.6269    1422.83215       0.4562       0.6271
   1422.81689       0.3132       0.5458    1422.81689       0.3134       0.5460
   1422.80164       0.2883       0.4945    1422.80164       0.2884       0.4947
   1422.78638       0.1757       0.4831    1422.78638       0.1758       0.4832
   1422.77112       0.0323       0.3463    1422.77112       0.0323       0.3464
   1422.75586       0.0921       0.3658    1422.75586       0.0921       0.3659
   1422.74060       0.0447       0.3260    1422.74060       0.0447       0.3261
   1422.72534       0.0453       0.2746    1422.72534       0.0453       0.2746
   1422.71008       0.0243       0.2203    1422.71008       0.0243       0.2203
   1422.69482       0.0238       0.2516    1422.69482       0.0238       0.2517
   1422.67957      -0.0439       0.2192    1422.67957      -0.0439       0.2192
   1422.66431      -0.0921       0.2692    1422.66431      -0.0921       0.2693
   1422.64905       0.0527       0.1956    1422.64905       0.0527       0.1956
   1422.63379       0.0648       0.2166    1422.63379       0.0648       0.2166
   1422.61853      -0.0198       0.2610    1422.61853      -0.0198       0.2611
   1422.60327       0.0228       0.2331    1422.60327       0.0229       0.2331
   1422.58801      -0.0543       0.2058    1422.58801      -0.0543       0.2058
   1422.57275      -0.0963       0.1781    1422.57275      -0.0963       0.1781
   1422.55750      -0.0641       0.1993    1422.55750      -0.0641       0.1993
   1422.54224      -0.0323       0.2243    1422.54224      -0.0323       0.2244
   1422.52698      -0.0751       0.1793    1422.52698      -0.0751       0.1794
   1422.51172      -0.0934       0.2039    1422.51172      -0.0935       0.2040
   1422.49646      -0.0420       0.2452    1422.49646      -0.0420       0.2452
   1422.48120      -0.0172       0.2640    1422.48120      -0.0172       0.2641
   1422.46594      -0.0474       0.2916    1422.46594      -0.0474       0.2917
   1422.45068      -0.0619       0.2161    1422.45068      -0.0619       0.2162
   1422.43542      -0.0170       0.1972    1422.43542      -0.0170       0.1972
   1422.42017      -0.0291       0.2172    1422.42017      -0.0291       0.2173
   1422.40491      -0.0585       0.1453    1422.40491      -0.0585       0.1453
   1422.38965      -0.0255       0.1038    1422.38965      -0.0255       0.1038
   1422.37439      -0.0219       0.1901    1422.37439      -0.0219       0.1902
   1422.35913       0.0330       0.2689    1422.35913       0.0330       0.2689
   1422.34387      -0.0831       0.2452    1422.34387      -0.0832       0.2453
   1422.32861      -0.0347       0.1965    1422.32861      -0.0347       0.1966
   1422.31335      -0.0380       0.2028    1422.31335      -0.0380       0.2028
   1422.29810      -0.0117       0.2154    1422.29810      -0.0117       0.2155
   1422.28284       0.0039       0.2010    1422.28284       0.0039       0.2011
   1422.26758      -0.1797       0.2117    1422.26758      -0.1798       0.2118
   1422.25232      -0.1200       0.1935    1422.25232      -0.1201       0.1936
   1422.23706      -0.0576       0.2267    1422.23706      -0.0577       0.2268
   1422.22180      -0.0087       0.1879    1422.22180      -0.0087       0.1880
   1422.20654      -0.0347       0.1946    1422.20654      -0.0348       0.1947
   1422.19128      -0.0604       0.3178    1422.19128      -0.0604       0.3179
   1422.17603      -0.1648       0.1476    1422.17603      -0.1649       0.1477
   1422.16077      -0.0833       0.1791    1422.16077      -0.0834       0.1792
   1422.14551      -0.0503       0.1749    1422.14551      -0.0504       0.1749
   1422.13025      -0.1291       0.1539    1422.13025      -0.1291       0.1540
   1422.11499      -0.1615       0.2492    1422.11499      -0.1616       0.2492
   1422.09973      -0.1320       0.1770    1422.09973      -0.1320       0.1771
   1422.08447      -0.0427       0.2141    1422.08447      -0.0427       0.2141
   1422.06921      -0.2351       0.1603    1422.06921      -0.2352       0.1603
   1422.05396      -0.0903       0.2083    1422.05396      -0.0903       0.2083
   1422.03870      -0.0597       0.2314    1422.03870      -0.0598       0.2314
   1422.02344      -0.0241       0.1631    1422.02344      -0.0241       0.1632
   1422.00818      -0.0566       0.1613    1422.00818      -0.0566       0.1614
   1421.99292      -0.0228       0.1137    1421.99292      -0.0228       0.1137
   1421.97766      -0.1175       0.2463    1421.97766      -0.1176       0.2464
   1421.96240      -0.0579       0.2946    1421.96240      -0.0579       0.2947
   1421.94714      -0.0337       0.2246    1421.94714      -0.0337       0.2246
   1421.93188      -0.0833       0.3233    1421.93188      -0.0834       0.3234
   1421.91663      -0.1463       0.1347    1421.91663      -0.1464       0.1348
   1421.90137      -0.1358       0.2536    1421.90137      -0.1358       0.2537
   1421.88611      -0.0317       0.2681    1421.88611      -0.0317       0.2681
   1421.87085      -0.1798       0.2650    1421.87085      -0.1798       0.2651
   1421.85559      -0.0584       0.3046    1421.85559      -0.0584       0.3047
   1421.84033      -0.1317       0.2556    1421.84033      -0.1318       0.2557
   1421.82507       0.0111       0.2703    1421.82507       0.0111       0.2704
   1421.80981      -0.0718       0.2889    1421.80981      -0.0718       0.2890
   1421.79456      -0.1880       0.2879    1421.79456      -0.1880       0.2880
   1421.77930      -0.1479       0.2195    1421.77930      -0.1480       0.2195
   1421.76404      -0.0872       0.2841    1421.76404      -0.0873       0.2842
   1421.74878      -0.1834       0.2083    1421.74878      -0.1835       0.2083
   1421.73352      -0.1142       0.3255    1421.73352      -0.1142       0.3256
   1421.71826      -0.1995       0.2757    1421.71826      -0.1996       0.2758
   1421.70300      -0.1643       0.2152    1421.70300      -0.1643       0.2153
   1421.68774      -0.1917       0.2093    1421.68774      -0.1918       0.2093
   1421.67249      -0.0906       0.2449    1421.67249      -0.0906       0.2449
   1421.65723      -0.0995       0.3041    1421.65723      -0.0996       0.3042
   1421.64197      -0.0784       0.3006    1421.64197      -0.0784       0.3007
   1421.62671      -0.2266       0.2614    1421.62671      -0.2267       0.2615
   1421.61145      -0.1793       0.2496    1421.61145      -0.1794       0.2496
   1421.59619      -0.2347       0.2062    1421.59619      -0.2348       0.2063
   1421.58093      -0.2211       0.2371    1421.58093      -0.2212       0.2372
   1421.56567      -0.1880       0.2928    1421.56567      -0.1881       0.2929
   1421.55042      -0.0814       0.2799    1421.55042      -0.0814       0.2800
   1421.53516      -0.1921       0.2325    1421.53516      -0.1922       0.2325
   1421.51990      -0.1044       0.1918    1421.51990      -0.1045       0.1919
   1421.50464      -0.0922       0.2352    1421.50464      -0.0922       0.2353
   1421.48938      -0.1750       0.1907    1421.48938      -0.1751       0.1908
   1421.47412      -0.1440       0.2840    1421.47412      -0.1441       0.2841
   1421.45886      -0.1489       0.2454    1421.45886      -0.1489       0.2455
   1421.44360      -0.1684       0.2758    1421.44360      -0.1685       0.2759
   1421.42834      -0.2177       0.2624    1421.42834      -0.2178       0.2625
   1421.41309      -0.1572       0.2438    1421.41309      -0.1573       0.2439
   1421.39783      -0.0990       0.2758    1421.39783      -0.0990       0.2759
   1421.38257      -0.2007       0.2297    1421.38257      -0.2007       0.2298
   1421.36731      -0.2814       0.3732    1421.36731      -0.2816       0.3733
   1421.35205      -0.1755       0.3291    1421.35205      -0.1756       0.3292
   1421.33679      -0.2307       0.1562    1421.33679      -0.2308       0.1562
   1421.32153      -0.1105       0.2833    1421.32153      -0.1106       0.2834
   1421.30627      -0.1582       0.2815    1421.30627      -0.1582       0.2816
   1421.29102      -0.0928       0.3371    1421.29102      -0.0928       0.3372
   1421.27576      -0.0939       0.2649    1421.27576      -0.0939       0.2650
   1421.26050      -0.2505       0.2512    1421.26050      -0.2506       0.2512
   1421.24524      -0.1416       0.1917    1421.24524      -0.1417       0.1917
   1421.22998      -0.2061       0.3098    1421.22998      -0.2062       0.3099
   1421.21472      -0.1887       0.2400    1421.21472      -0.1888       0.2401
   1421.19946      -0.1696       0.2826    1421.19946      -0.1697       0.2827
   1421.18420      -0.2041       0.2374    1421.18420      -0.2042       0.2375
   1421.16895      -0.2204       0.2660    1421.16895      -0.2205       0.2661
   1421.15369      -0.2147       0.2309    1421.15369      -0.2148       0.2310
   1421.13843      -0.1920       0.3175    1421.13843      -0.1921       0.3176
   1421.12317      -0.1378       0.2722    1421.12317      -0.1379       0.2723
   1421.10791      -0.1382       0.2911    1421.10791      -0.1383       0.2912
   1421.09265      -0.1577       0.2036    1421.09265      -0.1578       0.2037
   1421.07739      -0.1442       0.2886    1421.07739      -0.1443       0.2887
   1421.06213      -0.2781       0.2250    1421.06213      -0.2782       0.2251
   1421.04688      -0.2249       0.2454    1421.04688      -0.2250       0.2455
   1421.03162      -0.3035       0.2306    1421.03162      -0.3036       0.2307
   1421.01636      -0.1816       0.2727    1421.01636      -0.1817       0.2728
   1421.00110      -0.2746       0.2606    1421.00110      -0.2747       0.2607
   1420.98584      -0.2531       0.2887    1420.98584      -0.2532       0.2888
   1420.97058      -0.2328       0.3923    1420.97058      -0.2329       0.3924
   1420.95532      -0.2342       0.3453    1420.95532      -0.2343       0.3454
   1420.94006      -0.1703       0.2968    1420.94006      -0.1704       0.2969
   1420.92480      -0.1465       0.2610    1420.92480      -0.1465       0.2611
   1420.90955      -0.1067       0.3670    1420.90955      -0.1068       0.3671
   1420.89429      -0.1713       0.2776    1420.89429      -0.1713       0.2777
   1420.87903      -0.2323       0.2743    1420.87903      -0.2324       0.2744
   1420.86377      -0.2859       0.2807    1420.86377      -0.2860       0.2808
   1420.84851      -0.2540       0.2869    1420.84851      -0.2541       0.2870
   1420.83325      -0.2015       0.2136    1420.83325      -0.2016       0.2137
   1420.81799      -0.1683       0.2702    1420.81799      -0.1683       0.2703
   1420.80273      -0.1414       0.3178    1420.80273      -0.1415       0.3179
   1420.78748      -0.2420       0.3112    1420.78748      -0.2421       0.3113
   1420.77222      -0.2112       0.3482    1420.77222      -0.2113       0.3483
   1420.75696      -0.1803       0.3723    1420.75696      -0.1804       0.3724
   1420.74170      -0.1042       0.2946    1420.74170      -0.1043       0.2947
   1420.72644      -0.0681       0.2763    1420.72644      -0.0682       0.2764
   1420.71118      -0.1309       0.4194    1420.71118      -0.1309       0.4195
   1420.69592      -0.0257       0.3631    1420.69592      -0.0257       0.3632
   1420.68066      -0.0132       0.5931    1420.68066      -0.0132       0.5933
   1420.66541       0.0185       0.4566    1420.66541       0.0185       0.4568
   1420.65015       0.0122       0.5915    1420.65015       0.0122       0.5917
   1420.63489       0.1562       0.4890    1420.63489       0.1562       0.4892
   1420.61963       0.0350       0.4070    1420.61963       0.0350       0.4071
   1420.60437      -0.3727       0.1272    1420.60437      -0.3728       0.1273
   1420.58911      -0.4346       0.0459    1420.58911      -0.4348       0.0460
   1420.57385      -0.8352      -0.4012    1420.57385      -0.8356      -0.4013
   1420.55859      -1.0728      -0.6065    1420.55859      -1.0733      -0.6067
   1420.54333      -1.3371      -0.7440    1420.54333      -1.3377      -0.7443
   1420.52808      -1.2765      -0.6791    1420.52808      -1.2771      -0.6793
   1420.51282      -1.0579      -0.4262    1420.51282      -1.0584      -0.4263
   1420.49756      -1.5303      -1.0763    1420.49756      -1.5310      -1.0766
   1420.48230      -2.8088      -2.1662    1420.48230      -2.8100      -2.1669
   1420.46704      -2.6082      -1.8678    1420.46704      -2.6094      -1.8684
   1420.45178      -1.7643      -1.1846    1420.45178      -1.7651      -1.1850
   1420.43652      -1.5513      -1.2311    1420.43652      -1.5520      -1.2315
   1420.42126       1.9910       2.1761    1420.42126       1.9919       2.1768
   1420.40601       4.4338       4.4254    1420.40601       4.4357       4.4268
   1420.39075       0.3745       0.7005    1420.39075       0.3747       0.7007
   1420.37549       0.1264       0.3641    1420.37549       0.1264       0.3642
   1420.36023       0.1754       0.6890    1420.36023       0.1755       0.6892
   1420.34497       0.0107       0.4508    1420.34497       0.0107       0.4509
   1420.32971      -0.1782       0.3108    1420.32971      -0.1783       0.3109
   1420.31445      -0.3284       0.2734    1420.31445      -0.3285       0.2735
   1420.29919      -0.3365       0.1844    1420.29919      -0.3367       0.1845
   1420.28394      -0.3198       0.1995    1420.28394      -0.3199       0.1996
   1420.26868      -0.2130       0.2138    1420.26868      -0.2131       0.2138
   1420.25342      -0.2951       0.2526    1420.25342      -0.2952       0.2527
   1420.23816      -0.3259       0.2423    1420.23816      -0.3260       0.2424
   1420.22290      -0.2884       0.2352    1420.22290      -0.2886       0.2353
   1420.20764      -0.2557       0.2923    1420.20764      -0.2558       0.2924
   1420.19238      -0.3189       0.2163    1420.19238      -0.3191       0.2164
   1420.17712      -0.2958       0.2204    1420.17712      -0.2959       0.2205
   1420.16187      -0.2802       0.2073    1420.16187      -0.2804       0.2074
   1420.14661      -0.3263       0.2065    1420.14661      -0.3264       0.2066
   1420.13135      -0.3177       0.2878    1420.13135      -0.3179       0.2879
   1420.11609      -0.2795       0.1704    1420.11609      -0.2796       0.1704
   1420.10083      -0.3581       0.2168    1420.10083      -0.3583       0.2168
   1420.08557      -0.3315       0.2718    1420.08557      -0.3316       0.2719
   1420.07031      -0.2558       0.3142    1420.07031      -0.2559       0.3143
   1420.05505      -0.2936       0.2905    1420.05505      -0.2937       0.2906
   1420.03979      -0.2155       0.2289    1420.03979      -0.2156       0.2290
   1420.02454      -0.2579       0.2647    1420.02454      -0.2580       0.2648
   1420.00928      -0.2525       0.2451    1420.00928      -0.2526       0.2451
   1419.99402      -0.3566       0.2452    1419.99402      -0.3567       0.2453
   1419.97876      -0.2815       0.2171    1419.97876      -0.2816       0.2172
   1419.96350      -0.2811       0.2494    1419.96350      -0.2812       0.2495
   1419.94824      -0.3637       0.2557    1419.94824      -0.3639       0.2557
   1419.93298      -0.2730       0.3005    1419.93298      -0.2732       0.3006
   1419.91772      -0.2520       0.1467    1419.91772      -0.2521       0.1467
   1419.90247      -0.3064       0.1743    1419.90247      -0.3065       0.1744
   1419.88721      -0.2996       0.3155    1419.88721      -0.2997       0.3156
   1419.87195      -0.2844       0.2253    1419.87195      -0.2845       0.2254
   1419.85669      -0.2841       0.1935    1419.85669      -0.2842       0.1936
   1419.84143      -0.3191       0.2628    1419.84143      -0.3192       0.2629
   1419.82617      -0.2239       0.2882    1419.82617      -0.2240       0.2883
   1419.81091      -0.2616       0.2090    1419.81091      -0.2617       0.2091
   1419.79565      -0.3436       0.1795    1419.79565      -0.3438       0.1795
   1419.78040      -0.2768       0.2587    1419.78040      -0.2770       0.2588
   1419.76514      -0.2114       0.2555    1419.76514      -0.2115       0.2556
   1419.74988      -0.2323       0.2666    1419.74988      -0.2324       0.2667
   1419.73462      -0.2246       0.2495    1419.73462      -0.2247       0.2496
   1419.71936      -0.3047       0.2090    1419.71936      -0.3049       0.2090
   1419.70410      -0.2893       0.2352    1419.70410      -0.2894       0.2353
   1419.68884      -0.2668       0.1377    1419.68884      -0.2669       0.1378
   1419.67358      -0.2721       0.1855    1419.67358      -0.2722       0.1855
   1419.65833      -0.2159       0.1911    1419.65833      -0.2160       0.1911
   1419.64307      -0.2393       0.3077    1419.64307      -0.2394       0.3078
   1419.62781      -0.2122       0.3215    1419.62781      -0.2123       0.3216
   1419.61255      -0.3085       0.1970    1419.61255      -0.3087       0.1971
   1419.59729      -0.2371       0.2297    1419.59729      -0.2372       0.2298
   1419.58203      -0.2612       0.2619    1419.58203      -0.2614       0.2620
   1419.56677      -0.3403       0.2276    1419.56677      -0.3405       0.2277
   1419.55151      -0.3200       0.1922    1419.55151      -0.3201       0.1922
   1419.53625      -0.2780       0.2042    1419.53625      -0.2782       0.2043
   1419.52100      -0.3300       0.3249    1419.52100      -0.3301       0.3250
   1419.50574      -0.3085       0.1519    1419.50574      -0.3086       0.1519
   1419.49048      -0.2816       0.1450    1419.49048      -0.2817       0.1451
   1419.47522      -0.2036       0.1575    1419.47522      -0.2037       0.1575
   1419.45996      -0.2590       0.1649    1419.45996      -0.2591       0.1650
   1419.44470      -0.2846       0.2208    1419.44470      -0.2847       0.2208
   1419.42944      -0.3316       0.2036    1419.42944      -0.3317       0.2036
   1419.41418      -0.2540       0.1843    1419.41418      -0.2542       0.1843
   1419.39893      -0.2388       0.1781    1419.39893      -0.2389       0.1781
   1419.38367      -0.2334       0.1190    1419.38367      -0.2335       0.1191
   1419.36841      -0.2787       0.1967    1419.36841      -0.2788       0.1967
   1419.35315      -0.2991       0.2087    1419.35315      -0.2992       0.2087
   1419.33789      -0.3567       0.2116    1419.33789      -0.3569       0.2116
   1419.32263      -0.2884       0.1483    1419.32263      -0.2885       0.1483
   1419.30737      -0.2434       0.1526    1419.30737      -0.2435       0.1527
   1419.29211      -0.2785       0.0333    1419.29211      -0.2786       0.0333
   1419.27686      -0.2240       0.2258    1419.27686      -0.2241       0.2259
   1419.26160      -0.2807       0.1803    1419.26160      -0.2808       0.1803
   1419.24634      -0.2827       0.1565    1419.24634      -0.2828       0.1565
   1419.23108      -0.3442       0.2301    1419.23108      -0.3444       0.2302
   1419.21582      -0.3004       0.1557    1419.21582      -0.3005       0.1558
   1419.20056      -0.2505       0.2606    1419.20056      -0.2506       0.2607
   1419.18530      -0.3474       0.1965    1419.18530      -0.3476       0.1966
   1419.17004      -0.3271       0.1804    1419.17004      -0.3272       0.1805
   1419.15479      -0.2766       0.2309    1419.15479      -0.2767       0.2310
   1419.13953      -0.2561       0.1729    1419.13953      -0.2562       0.1729
   1419.12427      -0.2565       0.0929    1419.12427      -0.2566       0.0930
   1419.10901      -0.2285       0.2104    1419.10901      -0.2286       0.2104
   1419.09375      -0.1959       0.1266    1419.09375      -0.1960       0.1266
   1419.07849      -0.2725       0.1962    1419.07849      -0.2726       0.1962
   1419.06323      -0.2702       0.1661    1419.06323      -0.2703       0.1662
   1419.04797      -0.2249       0.2091    1419.04797      -0.2250       0.2091
   1419.03271      -0.2627       0.2143    1419.03271      -0.2629       0.2144
   1419.01746      -0.2781       0.1221    1419.01746      -0.2782       0.1221
   1419.00220      -0.2585       0.1565    1419.00220      -0.2586       0.1566
   1418.98694      -0.2227       0.0960    1418.98694      -0.2228       0.0961
   1418.97168      -0.2354       0.1217    1418.97168      -0.2355       0.1218
   1418.95642      -0.2308       0.1985    1418.95642      -0.2309       0.1985
   1418.94116      -0.1781       0.1531    1418.94116      -0.1782       0.1532
   1418.92590      -0.2838       0.1737    1418.92590      -0.2840       0.1738
   1418.91064      -0.2694       0.1548    1418.91064      -0.2696       0.1549
   1418.89539      -0.2502       0.1157    1418.89539      -0.2503       0.1157
   1418.88013      -0.3248       0.1529    1418.88013      -0.3249       0.1529
   1418.86487      -0.3289       0.1770    1418.86487      -0.3291       0.1770
   1418.84961      -0.2983       0.0957    1418.84961      -0.2984       0.0958
   1418.83435      -0.2397       0.0867    1418.83435      -0.2398       0.0867
   1418.81909      -0.2215       0.1492    1418.81909      -0.2216       0.1492
   1418.80383      -0.2739       0.1524    1418.80383      -0.2740       0.1524
   1418.78857      -0.2714       0.1818    1418.78857      -0.2715       0.1818
   1418.77332      -0.3193       0.1525    1418.77332      -0.3194       0.1525
   1418.75806      -0.3008       0.1807    1418.75806      -0.3010       0.1808
   1418.74280      -0.3438       0.0774    1418.74280      -0.3439       0.0775
   1418.72754      -0.2526       0.1083    1418.72754      -0.2527       0.1084
   1418.71228      -0.2587       0.1087    1418.71228      -0.2588       0.1088
   1418.69702      -0.2776       0.1121    1418.69702      -0.2777       0.1122
   1418.68176      -0.2783       0.0079    1418.68176      -0.2784       0.0079
   1418.66650      -0.1782       0.1531    1418.66650      -0.1783       0.1532
   1418.65125      -0.2539       0.2514    1418.65125      -0.2540       0.2515
   1418.63599      -0.2878       0.2386    1418.63599      -0.2879       0.2386
   1418.62073      -0.2452       0.1649    1418.62073      -0.2453       0.1649
   1418.60547      -0.2535       0.1449    1418.60547      -0.2537       0.1450
   1418.59021      -0.2493       0.2096    1418.59021      -0.2494       0.2097
   1418.57495      -0.2519       0.0617    1418.57495      -0.2520       0.0617
   1418.55969      -0.3186       0.2343    1418.55969      -0.3188       0.2344
   1418.54443      -0.3267       0.1468    1418.54443      -0.3269       0.1469
   1418.52917      -0.2738       0.1896    1418.52917      -0.2739       0.1896
   1418.51392      -0.2666       0.1407    1418.51392      -0.2667       0.1408
   1418.49866      -0.1923       0.2457    1418.49866      -0.1924       0.2458
   1418.48340      -0.1561       0.1420    1418.48340      -0.1562       0.1421
   1418.46814      -0.1383       0.1715    1418.46814      -0.1383       0.1716
   1418.45288      -0.2711       0.0393    1418.45288      -0.2712       0.0393
   1418.43762      -0.2423       0.1686    1418.43762      -0.2424       0.1687
   1418.42236      -0.2658       0.1492    1418.42236      -0.2659       0.1492
   1418.40710      -0.2754       0.1860    1418.40710      -0.2756       0.1860
   1418.39185      -0.2541       0.1686    1418.39185      -0.2542       0.1687
   1418.37659      -0.2609       0.2181    1418.37659      -0.2610       0.2182
   1418.36133      -0.2546       0.1096    1418.36133      -0.2547       0.1096
   1418.34607      -0.2302       0.1139    1418.34607      -0.2303       0.1140
   1418.33081      -0.2348       0.1297    1418.33081      -0.2349       0.1297
   1418.31555      -0.2739       0.1162    1418.31555      -0.2740       0.1162
   1418.30029      -0.2831       0.0662    1418.30029      -0.2832       0.0662
   1418.28503      -0.2862       0.1080    1418.28503      -0.2863       0.1080
   1418.26978      -0.2276       0.1465    1418.26978      -0.2278       0.1465
   1418.25452      -0.2314       0.1476    1418.25452      -0.2315       0.1477
   1418.23926      -0.2651       0.1579    1418.23926      -0.2652       0.1580
   1418.22400      -0.2241       0.1198    1418.22400      -0.2242       0.1198
   1418.20874      -0.1903       0.1011    1418.20874      -0.1904       0.1011
   1418.19348      -0.2690       0.0602    1418.19348      -0.2691       0.0603
   1418.17822      -0.3177       0.1306    1418.17822      -0.3178       0.1307
   1418.16296      -0.2281       0.0709    1418.16296      -0.2282       0.0709
   1418.14771      -0.2117       0.2179    1418.14771      -0.2118       0.2179
   1418.13245      -0.2126       0.0605    1418.13245      -0.2127       0.0606
   1418.11719      -0.2230       0.1295    1418.11719      -0.2231       0.1296
   1418.10193      -0.1983       0.0678    1418.10193      -0.1984       0.0678
   1418.08667      -0.2467       0.1328    1418.08667      -0.2468       0.1329
   1418.07141      -0.2990       0.0095    1418.07141      -0.2991       0.0095
   1418.05615      -0.2724       0.1680    1418.05615      -0.2725       0.1680
   1418.04089      -0.2785       0.1383    1418.04089      -0.2787       0.1383
   1418.02563      -0.2166       0.1477    1418.02563      -0.2167       0.1478
   1418.01038      -0.1902       0.1089    1418.01038      -0.1902       0.1089
   1417.99512      -0.2278       0.1258    1417.99512      -0.2279       0.1258
   1417.97986      -0.1797       0.1067    1417.97986      -0.1798       0.1068
   1417.96460      -0.2524       0.1863    1417.96460      -0.2525       0.1863
   1417.94934      -0.1917       0.1942    1417.94934      -0.1918       0.1943
   1417.93408      -0.2036       0.0794    1417.93408      -0.2037       0.0794
   1417.91882      -0.3960       0.1566    1417.91882      -0.3962       0.1567
   1417.90356      -0.2999       0.1367    1417.90356      -0.3000       0.1367
   1417.88831      -0.2066       0.1279    1417.88831      -0.2067       0.1280
   1417.87305      -0.1837       0.1789    1417.87305      -0.1837       0.1790
   1417.85779      -0.1327       0.2125    1417.85779      -0.1327       0.2126
   1417.84253      -0.1167       0.1319    1417.84253      -0.1167       0.1320
   1417.82727      -0.2216       0.0750    1417.82727      -0.2217       0.0751
   1417.81201      -0.2663       0.0979    1417.81201      -0.2665       0.0979
   1417.79675      -0.1951       0.1299    1417.79675      -0.1951       0.1299
   1417.78149      -0.0948       0.1538    1417.78149      -0.0948       0.1539
   1417.76624      -0.1929       0.1124    1417.76624      -0.1930       0.1124
   1417.75098      -0.2069       0.2377    1417.75098      -0.2070       0.2377
   1417.73572      -0.2726       0.1585    1417.73572      -0.2727       0.1585
   1417.72046      -0.2133       0.1598    1417.72046      -0.2134       0.1599
   1417.70520      -0.2816       0.1806    1417.70520      -0.2818       0.1807
   1417.68994      -0.2403       0.1531    1417.68994      -0.2404       0.1532
   1417.67468      -0.2278       0.1188    1417.67468      -0.2279       0.1189
   1417.65942      -0.1430       0.1075    1417.65942      -0.1431       0.1076
   1417.64417      -0.1677       0.1252    1417.64417      -0.1677       0.1253
   1417.62891      -0.2334       0.1865    1417.62891      -0.2335       0.1865
   1417.61365      -0.1940       0.1477    1417.61365      -0.1941       0.1478
   1417.59839      -0.1318       0.1145    1417.59839      -0.1319       0.1146
   1417.58313      -0.1839       0.1457    1417.58313      -0.1840       0.1458
   1417.56787      -0.2035       0.1468    1417.56787      -0.2036       0.1468
   1417.55261      -0.1485       0.1784    1417.55261      -0.1486       0.1784
   1417.53735      -0.1810       0.1148    1417.53735      -0.1810       0.1148
   1417.52209      -0.2130       0.1618    1417.52209      -0.2130       0.1618
   1417.50684      -0.1131       0.1469    1417.50684      -0.1131       0.1469
   1417.49158      -0.1832       0.0956    1417.49158      -0.1832       0.0956
   1417.47632      -0.2746       0.1050    1417.47632      -0.2747       0.1051
   1417.46106      -0.0915       0.1690    1417.46106      -0.0916       0.1690
   1417.44580      -0.1970       0.0771    1417.44580      -0.1970       0.0771
   1417.43054      -0.2069       0.1224    1417.43054      -0.2070       0.1224
   1417.41528      -0.1065       0.1238    1417.41528      -0.1066       0.1238
   1417.40002      -0.2434       0.0764    1417.40002      -0.2435       0.0764
   1417.38477      -0.2030       0.1387    1417.38477      -0.2031       0.1388
   1417.36951      -0.2411       0.1227    1417.36951      -0.2412       0.1228
   1417.35425      -0.2642       0.1631    1417.35425      -0.2643       0.1631
   1417.33899      -0.2419       0.2036    1417.33899      -0.2420       0.2037
   1417.32373      -0.2499       0.1297    1417.32373      -0.2500       0.1298
   1417.30847      -0.1988       0.0832    1417.30847      -0.1989       0.0832
   1417.29321      -0.2025       0.1632    1417.29321      -0.2026       0.1633
   1417.27795      -0.2385       0.1449    1417.27795      -0.2387       0.1450
   1417.26270      -0.1559       0.1150    1417.26270      -0.1559       0.1150
   1417.24744      -0.1486       0.0994    1417.24744      -0.1486       0.0995
   1417.23218      -0.2409       0.1315    1417.23218      -0.2410       0.1316
   1417.21692      -0.1835       0.1291    1417.21692      -0.1835       0.1291
   1417.20166      -0.2153       0.0711    1417.20166      -0.2154       0.0711
   1417.18640      -0.2070       0.1112    1417.18640      -0.2071       0.1112
   1417.17114      -0.2076       0.0914    1417.17114      -0.2077       0.0914
   1417.15588      -0.2175       0.1530    1417.15588      -0.2176       0.1530
   1417.14062      -0.2900       0.1339    1417.14062      -0.2901       0.1339
   1417.12537      -0.2297       0.1055    1417.12537      -0.2298       0.1055
   1417.11011      -0.2106       0.0657    1417.11011      -0.2107       0.0657
   1417.09485      -0.2090       0.1470    1417.09485      -0.2091       0.1471
   1417.07959      -0.2295       0.0631    1417.07959      -0.2296       0.0631
   1417.06433      -0.1895       0.1627    1417.06433      -0.1896       0.1628
   1417.04907      -0.1973       0.2266    1417.04907      -0.1974       0.2267
   1417.03381      -0.2207       0.0651    1417.03381      -0.2208       0.0651
   1417.01855      -0.3432       0.0766    1417.01855      -0.3434       0.0767
   1417.00330      -0.2021       0.0590    1417.00330      -0.2022       0.0590
   1416.98804      -0.0886       0.1593    1416.98804      -0.0886       0.1593
   1416.97278      -0.2674       0.1202    1416.97278      -0.2675       0.1202
   1416.95752      -0.1356       0.0767    1416.95752      -0.1357       0.0768
   1416.94226      -0.2624       0.0601    1416.94226      -0.2625       0.0601
   1416.92700      -0.2170       0.0258    1416.92700      -0.2170       0.0258
   1416.91174      -0.2673       0.1293    1416.91174      -0.2674       0.1293
   1416.89648      -0.1854       0.0972    1416.89648      -0.1855       0.0972
   1416.88123      -0.2343      -0.0165    1416.88123      -0.2344      -0.0165
   1416.86597      -0.1969       0.0966    1416.86597      -0.1970       0.0966
   1416.85071      -0.1615       0.2046    1416.85071      -0.1616       0.2047
   1416.83545      -0.1761       0.1347    1416.83545      -0.1762       0.1348
   1416.82019      -0.1587       0.0656    1416.82019      -0.1587       0.0656
   1416.80493      -0.1292       0.2113    1416.80493      -0.1293       0.2114
   1416.78967      -0.1920       0.1220    1416.78967      -0.1920       0.1220
   1416.77441      -0.1794       0.0989    1416.77441      -0.1795       0.0989
   1416.75916      -0.2019       0.0386    1416.75916      -0.2020       0.0386
   1416.74390      -0.1835       0.0850    1416.74390      -0.1836       0.0850
   1416.72864      -0.1510       0.1366    1416.72864      -0.1511       0.1367
   1416.71338      -0.1349       0.1442    1416.71338      -0.1350       0.1442
   1416.69812      -0.2114       0.1302    1416.69812      -0.2115       0.1302
   1416.68286      -0.1711       0.1170    1416.68286      -0.1711       0.1171
   1416.66760      -0.3093       0.0843    1416.66760      -0.3095       0.0843
   1416.65234      -0.1972      -0.0386    1416.65234      -0.1973      -0.0386
   1416.63708      -0.2079       0.1428    1416.63708      -0.2080       0.1428
   1416.62183      -0.2153       0.0880    1416.62183      -0.2154       0.0880
   1416.60657      -0.2466       0.0752    1416.60657      -0.2467       0.0752
   1416.59131      -0.1643       0.0429    1416.59131      -0.1644       0.0429
   1416.57605      -0.2950       0.1212    1416.57605      -0.2951       0.1213
   1416.56079      -0.1677       0.0775    1416.56079      -0.1678       0.0775
   1416.54553      -0.1648       0.1153    1416.54553      -0.1649       0.1154
   1416.53027      -0.1785       0.1365    1416.53027      -0.1785       0.1365
   1416.51501      -0.2328       0.0246    1416.51501      -0.2329       0.0246
   1416.49976      -0.1666       0.0543    1416.49976      -0.1666       0.0544
   1416.48450      -0.2847       0.0189    1416.48450      -0.2848       0.0190
   1416.46924      -0.1507       0.0953    1416.46924      -0.1507       0.0953
   1416.45398      -0.2823       0.0602    1416.45398      -0.2824       0.0602
   1416.43872      -0.1176       0.1008    1416.43872      -0.1177       0.1009
   1416.42346      -0.3133       0.1193    1416.42346      -0.3134       0.1194
   1416.40820      -0.2313       0.0353    1416.40820      -0.2314       0.0353
   1416.39294      -0.2348       0.1531    1416.39294      -0.2349       0.1532
   1416.37769      -0.2481       0.1236    1416.37769      -0.2482       0.1236
   1416.36243      -0.1710       0.0947    1416.36243      -0.1711       0.0948
   1416.34717      -0.1868       0.0727    1416.34717      -0.1869       0.0727
   1416.33191      -0.2009       0.0255    1416.33191      -0.2010       0.0255
   1416.31665      -0.2214       0.0711    1416.31665      -0.2215       0.0711
   1416.30139      -0.3742       0.1387    1416.30139      -0.3744       0.1388
   1416.28613      -0.2056       0.1487    1416.28613      -0.2057       0.1488
   1416.27087      -0.1694       0.0492    1416.27087      -0.1695       0.0493
   1416.25562      -0.2665       0.1237    1416.25562      -0.2666       0.1238
   1416.24036      -0.2157       0.0669    1416.24036      -0.2158       0.0669
   1416.22510      -0.2066       0.1276    1416.22510      -0.2067       0.1277
   1416.20984      -0.1476       0.0925    1416.20984      -0.1477       0.0925
   1416.19458      -0.2500       0.0305    1416.19458      -0.2501       0.0305
   1416.17932      -0.2779       0.1424    1416.17932      -0.2780       0.1424
   1416.16406      -0.1519      -0.0279    1416.16406      -0.1520      -0.0280
   1416.14880      -0.1261       0.1021    1416.14880      -0.1261       0.1022
   1416.13354      -0.1760       0.1162    1416.13354      -0.1761       0.1162
   1416.11829      -0.3086       0.0228    1416.11829      -0.3087       0.0228
   1416.10303      -0.2615       0.1385    1416.10303      -0.2617       0.1386
   1416.08777      -0.1897       0.0544    1416.08777      -0.1897       0.0545
   1416.07251      -0.1473       0.0925    1416.07251      -0.1474       0.0925
   1416.05725      -0.1237       0.0344    1416.05725      -0.1238       0.0345
   1416.04199      -0.1501      -0.0602    1416.04199      -0.1502      -0.0602
   1416.02673      -0.1870       0.0771    1416.02673      -0.1870       0.0771
   1416.01147      -0.2488       0.1298    1416.01147      -0.2489       0.1299
   1415.99622      -0.1971       0.1617    1415.99622      -0.1971       0.1618
